Sample Index	EXG Channel 0	EXG Channel 1	EXG Channel 2	EXG Channel 3	EXG Channel 4	EXG Channel 5	EXG Channel 6	EXG Channel 7	EXG Channel 8	EXG Channel 9	EXG Channel 10	EXG Channel 11	EXG Channel 12	EXG Channel 13	EXG Channel 14	EXG Channel 15	Accel Channel 0	Accel Channel 1	Accel Channel 2	Other	Other	Other	Other	Other	Other	Other	Analog Channel 0	Analog Channel 1	Analog Channel 2	Timestamp	Other
0.000000	11.744436	28.861046	50.326970	73.942303	96.226414	139.742089	342.820661	377.912859	371.937591	469.565467	563.771682	537.325256	493.307523	597.453480	574.704854	461.233330	0.888649	0.939034	0.907293	0.851065	0.864667	0.944750	0.962224	546.576994	259678.410458	36.609480	911.480476	917.837727	91.418329	1693806259.358158	0.000000
1.000000	13.430642	34.196052	58.013465	92.860825	128.475937	140.441481	312.184000	312.894224	296.321159	279.458875	176.741193	122.877939	-57.904233	-64.290836	-142.865756	-56.436250	0.891593	0.816455	0.905485	0.980135	0.926093	0.997434	1.095110	529.900174	271573.229264	36.609786	1065.205272	1094.933516	85.694413	1693806259.362264	0.000000
2.000000	15.269362	41.462117	68.671074	100.673237	122.587079	116.157507	89.929758	48.057116	37.998460	-14.458875	-23.167756	-58.257801	-56.388229	78.494483	171.006802	244.312367	0.817630	0.942965	0.991831	0.983016	0.810384	0.862772	1.094140	464.744191	229515.042361	36.593786	963.536932	980.257089	98.410763	1693806259.366251	0.000000
3.000000	17.118780	45.343653	72.385708	94.061270	77.655824	50.863005	27.275668	-64.070560	18.934045	-0.150841	75.737520	145.211894	216.253264	381.623576	239.626088	201.184119	0.995566	0.965168	0.822608	0.935684	0.918057	0.996343	0.902292	471.806306	274872.658714	36.608151	989.190022	1077.402435	83.010039	1693806259.370251	0.000000
4.000000	17.982601	47.062306	72.382760	64.149226	38.983233	-19.977147	1.838122	-30.466234	48.753152	164.645253	190.474230	242.074987	287.038156	133.932248	49.373418	-13.163863	0.820431	0.809566	0.933492	0.935723	0.970692	0.892352	1.010181	450.395471	269052.616868	36.597379	919.132032	958.689629	88.837592	1693806259.374252	0.000000
5.000000	19.897138	48.165018	59.200571	38.711046	5.859945	-15.369931	16.707147	92.926305	171.247875	193.284177	164.358623	94.979600	-81.454726	-149.898721	-38.606835	199.755317	0.824738	0.873735	0.936207	0.957644	0.891943	0.937101	1.096520	531.587857	241922.802609	36.598177	1062.205064	1089.879361	87.930194	1693806259.378259	0.000000
6.000000	20.951919	44.786595	47.883392	11.412735	-20.954445	-4.701740	92.157942	216.229562	160.391668	132.579623	-1.007006	-67.394828	48.505552	213.802939	457.981621	307.087795	0.833503	0.834968	0.877513	0.895223	0.930222	0.801694	0.942914	545.926529	267997.158521	36.596875	1047.586505	1079.733116	96.164441	1693806259.382254	0.000000
7.000000	21.821358	46.497784	30.977194	-6.567407	-14.385311	59.880633	145.868156	159.874283	88.059494	-32.528223	-74.531393	132.565232	323.580263	247.801017	141.663620	-113.647920	0.910187	0.932883	0.979880	0.980296	0.938698	0.884260	1.060951	473.793204	237356.938860	36.596554	960.860586	1002.933304	91.113292	1693806259.386242	0.000000
8.000000	23.230119	41.358388	17.072607	-21.504547	23.698794	121.397764	185.965103	82.949023	-62.135645	32.164369	164.837410	373.848983	248.685881	4.272570	-147.423929	159.323303	0.966646	0.943803	0.850772	0.996124	0.913927	0.877741	0.929115	483.918180	268724.683981	36.591122	994.012350	969.917209	96.062561	1693806259.390231	0.000000
9.000000	23.844438	36.269490	-1.670128	-13.642803	62.331361	138.371750	107.339678	-36.102303	-36.661232	164.163733	272.585142	135.648604	-18.189450	-18.010347	320.174349	507.333171	0.992368	0.808961	0.918526	0.928334	0.912238	0.860072	0.908420	460.373414	276774.108495	36.597321	999.208534	940.890136	92.425044	1693806259.394221	0.000000
10.000000	23.373773	28.304705	-2.697078	3.783434	97.935225	114.864876	9.787721	-49.101738	115.528767	202.329306	110.214402	32.621413	110.023522	249.091829	285.113532	-98.305457	0.927044	0.883848	0.895096	0.850031	0.870772	0.892322	1.096515	533.464431	254020.034001	36.591723	1091.636525	1049.457643	85.623040	1693806259.398219	0.000000
11.000000	23.834093	22.071832	-11.085965	34.498651	109.338850	71.382519	-24.154823	67.953897	173.122408	126.541455	16.799705	81.197341	379.512126	211.919425	-128.376617	142.393004	0.936638	0.849636	0.833598	0.905934	0.926870	0.860600	0.927870	503.341443	239307.187572	36.595851	991.379678	973.740407	83.473418	1693806259.402219	0.000000
12.000000	24.078405	14.982320	-10.506554	66.121521	123.264608	-1.822885	9.966570	184.633861	191.909878	-14.880702	30.333220	251.716748	159.124325	-53.854133	158.095476	540.091480	0.917647	0.939374	0.913567	0.871354	0.871186	0.814597	1.006874	521.804290	260599.012787	36.608677	978.181669	1013.355561	84.638177	1693806259.406220	0.000000
13.000000	24.142662	7.226381	-1.334974	91.883750	75.520882	-6.109799	75.371060	194.449802	1.045632	30.159279	226.351397	203.199031	47.913520	172.269426	215.901330	50.912429	0.856325	0.822506	0.820476	0.867988	0.915415	0.866428	0.969888	462.951085	275833.636738	36.603090	973.615641	1034.726801	98.553254	1693806259.410220	0.000000
14.000000	23.199765	3.539256	8.987385	98.456036	34.599700	-7.362354	155.126285	109.255151	-45.842161	166.154836	220.137179	4.333653	127.169512	317.713670	24.611453	32.334265	0.811353	0.989869	0.968275	0.853945	0.912447	0.945417	1.049906	512.718801	274340.605011	36.598434	1070.003523	1036.413194	94.604720	1693806259.414225	0.000000
15.000000	23.368036	-4.535832	23.849407	83.064277	-11.618879	44.025487	181.437325	16.822556	60.153176	275.440273	7.996020	12.521803	234.298439	16.337939	88.906114	876.487769	0.988332	0.999235	0.969269	0.929303	0.945857	0.882466	0.943070	470.425027	261545.738676	36.607154	955.730567	923.766035	97.229519	1693806259.418229	0.000000
16.000000	22.305276	-6.444807	39.172030	81.629400	-24.285846	97.654999	107.806636	-72.819981	147.313288	122.254946	-32.900118	209.329808	108.100034	41.814545	575.158756	189.582271	0.827173	0.802402	0.924100	0.925630	0.997856	0.827371	0.958080	464.372837	232036.400023	36.591248	978.606902	991.164385	80.458309	1693806259.422228	0.000000
17.000000	20.401627	-7.756025	54.051572	53.296548	2.804495	120.807987	35.503514	50.261735	224.941836	-18.651306	150.911210	265.916609	-128.379608	635.444213	261.116843	-10.065917	0.924772	0.984865	0.954817	0.852051	0.838847	0.956084	0.999221	503.078871	240232.306352	36.596251	929.597260	963.502633	88.469310	1693806259.426224	0.000000
18.000000	19.372709	-10.224741	63.119282	26.172670	21.360913	133.650768	-46.161799	136.185391	108.415565	-19.833226	313.817871	-97.085624	382.991390	439.893534	-75.678253	429.264167	0.989176	0.910278	0.903050	0.831799	0.896286	0.941735	0.912597	469.977923	259468.496324	36.595226	1068.513827	991.067991	99.348361	1693806259.430224	0.000000
19.000000	18.241213	-7.842501	68.967759	-0.766832	66.795640	94.856599	-37.225268	156.070029	-52.764981	171.465392	139.553200	-22.870170	731.078471	-173.407787	215.640916	116.528393	0.990704	0.967425	0.906074	0.924394	0.960382	0.802238	1.089905	480.186531	234725.819041	36.591805	978.025759	959.457865	81.274415	1693806259.434226	0.000000
20.000000	17.035048	-1.393159	69.979312	-17.654414	101.565566	37.218901	64.725182	137.666564	-46.025807	260.225421	-13.415341	386.055468	92.514328	120.569603	342.946646	-150.724062	0.828187	0.999103	0.890268	0.985769	0.917523	0.932534	1.049245	485.016466	255851.965345	36.593192	943.757568	1033.265088	81.046722	1693806259.438229	0.000000
21.000000	15.439657	3.501737	63.025003	-17.649000	106.191257	-33.417060	151.126257	25.492758	106.350892	127.441161	39.247706	493.448974	-108.947499	264.438102	-65.221856	236.952519	0.980433	0.974904	0.843642	0.924968	0.805916	0.809348	1.028719	463.642739	228816.643485	36.607697	1080.796043	964.384814	84.557628	1693806259.442231	0.000000
22.000000	13.557434	7.455636	57.017432	0.088207	115.553448	-9.130537	172.364349	-46.982017	212.849749	-36.846763	515.145098	-47.864605	160.721384	94.513232	165.073419	185.187555	0.993129	0.893868	0.988705	0.968413	0.911235	0.875106	1.049038	469.617501	268713.688374	36.602512	1015.181745	1089.605745	84.336344	1693806259.446233	0.000000
23.000000	11.785784	13.806412	42.777876	24.358686	78.823700	15.246437	136.298582	5.153533	187.927740	-21.666664	499.210816	-21.500269	192.054004	-66.541021	354.514675	-85.344559	0.908393	0.843361	0.865659	0.956956	0.937235	0.947255	1.076193	487.799379	267647.578286	36.602715	1041.013502	1073.214473	86.294968	1693806259.450236	0.000000
24.000000	10.000000	21.506877	25.278719	49.043911	33.168474	80.650181	47.425043	113.611896	45.868053	321.032166	37.832536	247.964571	44.613167	244.028923	-33.877815	391.536008	0.899832	0.933320	0.990939	0.983343	0.918391	0.880724	0.943016	467.036771	235321.642417	36.598325	1030.630167	920.694359	89.927970	1693806259.454242	0.000000
25.000000	8.228477	28.276818	7.661338	69.373975	10.831980	113.175422	-34.562013	229.601592	-74.914694	458.468493	-30.973301	316.950198	14.662552	284.241530	111.454827	291.659201	0.841081	0.906753	0.959037	0.845555	0.806428	0.816064	0.968461	514.226056	251627.547623	36.591140	1088.461812	1091.955798	84.427203	1693806259.458234	0.000000
26.000000	6.632867	35.834242	-2.761580	94.761481	-6.050062	167.025200	-16.080459	183.856853	55.953752	239.246960	123.061992	64.777667	183.162619	84.172820	485.106662	-6.526822	0.961641	0.973344	0.898200	0.841533	0.987923	0.937918	1.032171	544.620978	236661.701300	36.604199	1050.882791	1087.522057	99.468503	1693806259.462234	0.000000
27.000000	4.845376	38.813607	-10.900872	86.903080	-4.770118	113.524160	52.989238	58.000623	343.595546	-1.128706	241.153812	-32.290227	319.825686	61.501558	145.146724	337.192440	0.884925	0.933316	0.807361	0.882263	0.856005	0.833371	0.908119	516.924366	260827.130471	36.592436	1018.511745	980.892426	80.860132	1693806259.466228	0.000000
28.000000	3.495128	43.629820	-10.414881	85.683472	22.449501	52.319384	126.671504	-14.161069	449.595601	-16.590146	136.303281	196.386263	68.423480	432.380000	56.581305	329.743271	0.822912	0.915396	0.844080	0.957907	0.997742	0.965311	1.038442	455.089322	249437.750636	36.608883	1093.250162	1048.901365	81.732705	1693806259.470229	0.000000
29.000000	1.360147	47.919445	-3.091772	65.567774	63.659816	5.301263	157.245534	13.366224	115.782652	182.409638	-28.874569	221.542857	2.899025	136.632809	223.101742	-181.787167	0.881300	0.872367	0.907645	0.848294	0.823405	0.909942	0.936348	545.526381	241857.280715	36.592383	922.968355	1045.185639	94.008949	1693806259.474232	0.000000
30.000000	0.390009	50.861139	2.062152	38.644050	105.157724	-19.483268	137.063736	194.056302	6.611880	242.511742	-24.463386	94.560788	289.944516	-41.144317	254.011346	440.589340	0.801904	0.863192	0.978104	0.955832	0.968845	0.821327	0.941669	520.985432	254891.784654	36.600078	1093.990416	1048.900220	97.031076	1693806259.478233	0.000000
31.000000	-1.078608	47.675941	15.695650	6.590385	136.503721	-6.604590	57.558407	372.216607	-11.323497	115.914467	172.490405	-5.420700	245.407681	267.172773	-153.912187	663.026393	0.920555	0.842863	0.837261	0.975172	0.876635	0.927053	0.955323	450.860959	272693.750214	36.605187	931.890658	997.756049	96.544758	1693806259.482242	0.000000
32.000000	-1.971657	44.068247	28.936296	-11.136759	111.790395	59.885024	-22.353909	394.871467	92.689036	-24.369869	209.232668	129.010732	-59.974241	306.214714	338.432990	-120.006989	0.929637	0.882466	0.836178	0.833759	0.977370	0.913822	1.089733	531.063329	259045.611589	36.599777	1076.421994	1043.511082	98.973756	1693806259.486244	0.000000
33.000000	-2.617815	38.914780	43.456289	-24.655757	72.426775	103.092925	-18.967111	81.919452	237.989853	21.792361	66.988396	363.750211	97.553383	-12.540999	744.794418	159.100791	0.944206	0.810563	0.803187	0.955299	0.958113	0.822326	1.061548	548.920885	259583.497370	36.599500	952.594553	974.922911	87.026269	1693806259.490236	0.000000
34.000000	-2.844876	37.005714	59.575344	-16.966187	34.764736	130.521213	92.174863	21.738424	159.730634	141.322621	30.866238	129.673508	271.269223	66.523090	77.924173	212.684301	0.884544	0.959055	0.931532	0.951001	0.924190	0.897500	0.988991	454.565534	231697.769517	36.601305	1061.635357	1027.590839	82.460848	1693806259.494233	0.000000
35.000000	-4.403415	29.824411	62.529019	6.956345	1.692733	127.918174	254.958031	-58.187635	55.592834	284.791097	109.607478	6.161641	178.970618	569.740270	76.603102	-21.194793	0.819296	0.848696	0.969967	0.976153	0.886393	0.954845	1.063081	523.363970	257124.901833	36.595009	984.391435	1028.905530	99.712814	1693806259.498233	0.000000
36.000000	-4.389846	22.006655	69.111311	33.627273	-5.417457	69.421587	346.631924	57.757447	-47.104765	130.149077	344.004244	71.079119	-142.090292	177.388759	369.463397	143.082623	0.805705	0.825447	0.929244	0.841630	0.866745	0.868358	0.932758	540.167195	241474.650402	36.591746	995.453873	928.846159	88.648650	1693806259.502237	0.000000
37.000000	-4.724885	14.748561	72.268462	61.401957	-11.941879	3.916944	153.329408	168.939012	35.519068	-25.471402	149.213796	366.226004	210.210455	-139.540182	141.467235	342.461632	0.831799	0.988535	0.995204	0.858427	0.960179	0.889601	1.029705	468.624656	247732.315704	36.596999	935.879759	912.772865	91.980980	1693806259.506233	0.000000
38.000000	-3.253418	9.281197	60.829669	85.758165	15.362059	-1.039933	64.126245	171.368097	129.524266	24.912597	-25.212766	151.705124	582.522667	169.362897	86.499009	33.831126	0.858959	0.941056	0.948783	0.852552	0.881894	0.878796	0.919122	509.834673	228353.875311	36.596727	1027.045122	1004.432165	88.994094	1693806259.510234	0.000000
39.000000	-3.357741	1.219638	50.125129	86.029814	64.277687	-24.814190	-21.686818	105.319860	271.929705	164.968474	-0.226437	-164.969435	299.151140	411.552114	261.735092	-9.031376	0.864201	0.857957	0.809898	0.950792	0.848455	0.839611	0.992603	511.383867	232140.272494	36.594627	1032.771962	983.662897	87.945000	1693806259.514235	0.000000
40.000000	-2.728092	-2.546437	37.327789	97.049530	99.822207	39.307353	1.379901	9.913865	126.650314	252.197271	193.062751	85.024696	-17.215697	41.974618	205.326168	207.227114	0.947347	0.868132	0.988593	0.849852	0.903142	0.840950	1.063740	506.881343	247213.280827	36.598034	1088.074595	908.025578	91.041967	1693806259.518237	0.000000
41.000000	-2.312082	-8.018957	20.562531	71.545162	119.153008	99.331220	27.050606	-34.774272	22.392502	127.253831	228.937096	483.298634	140.440830	-48.218158	-169.631687	52.614170	0.923695	0.850694	0.929112	0.808075	0.937327	0.801562	1.073971	533.752854	229970.536445	36.604508	922.532750	1093.700963	94.210474	1693806259.522237	0.000000
42.000000	-0.621543	-7.372883	7.322541	51.081940	109.800720	127.986542	104.114668	19.071756	-47.557873	-20.291701	66.024142	175.866006	267.509207	403.231637	167.892107	53.386054	0.810814	0.861596	0.820430	0.881082	0.818603	0.846334	1.039705	503.345782	238069.059852	36.602992	930.011541	1098.659864	97.318066	1693806259.526239	0.000000
43.000000	0.146172	-8.169849	-7.247232	22.193127	75.503302	157.685544	163.559300	122.389898	80.789943	21.359259	-126.133472	10.458537	99.441860	262.363105	269.148978	447.312159	0.965364	0.923096	0.907274	0.972397	0.807019	0.940136	0.974588	488.215032	252365.529707	36.603865	956.999346	900.482703	81.936498	1693806259.530242	0.000000
44.000000	1.711726	-7.818184	-12.260554	-2.487307	38.948937	97.407166	137.537402	233.806778	172.488603	149.654736	177.686641	16.170469	-21.567579	-15.207919	-54.389353	266.692907	0.830704	0.849536	0.961430	0.985054	0.895956	0.986481	1.038106	458.022570	240726.494900	36.594348	930.869328	1037.609983	82.155319	1693806259.534242	0.000000
45.000000	3.126306	-1.967909	-7.583658	-24.555973	-13.368546	23.525295	75.573791	124.712330	227.731901	192.100168	429.900864	207.601310	205.336506	133.160787	72.195921	-89.664116	0.930402	0.890770	0.937507	0.893213	0.934482	0.815394	1.041119	488.273535	241493.817492	36.606975	986.968187	1045.230410	94.257236	1693806259.538239	0.000000
46.000000	4.867963	1.037484	-1.953321	-15.171437	-36.997927	-13.529893	-12.345217	32.370591	72.542833	121.981524	146.830946	231.555621	219.438810	296.707225	295.549815	633.339938	0.917148	0.858180	0.957177	0.991130	0.916177	0.916768	0.983183	476.135463	256900.512108	36.602980	916.502237	956.406060	93.907693	1693806259.542240	0.000000
47.000000	6.649476	7.481776	6.974407	5.713309	-4.629407	-26.195016	-10.010793	-17.901656	-10.101699	-67.191928	-10.815163	71.556186	71.765969	76.912743	272.437985	203.434924	0.893796	0.998479	0.904958	0.953890	0.923653	0.883227	0.921144	529.938195	247165.283301	36.604364	1040.742205	1059.557415	95.483694	1693806259.546240	0.000000
48.000000	8.192919	14.495678	17.647459	16.767058	16.279430	28.407142	0.164497	-2.376515	-7.885678	-20.342117	-16.290179	-75.559742	-64.228732	6.137606	-174.820569	-207.149119	0.903941	0.812499	0.800274	0.940933	0.870249	0.899793	0.954507	492.203415	252194.535251	36.605910	1034.086464	956.369419	83.537409	1693806259.550243	0.000000
49.000000	10.000000	21.429072	33.837697	50.130889	62.420756	77.998824	98.241968	103.654758	134.365369	332.453955	225.058056	248.836580	278.649090	242.932848	562.615809	252.388903	0.946388	0.985821	0.828790	0.986327	0.927719	0.951378	0.934059	497.643841	252734.104688	36.605426	1035.109687	1023.886234	90.033255	1693806259.554244	0.000000
50.000000	11.753548	28.768605	47.279593	76.456145	92.539806	122.180298	143.709486	227.291860	271.768100	511.233623	227.909948	260.303907	249.639623	606.195459	205.139399	191.655954	0.981078	0.977098	0.929364	0.816425	0.940693	0.938306	0.958402	488.221813	228695.971584	36.609488	1033.987729	1002.228176	90.266964	1693806259.558246	0.000000
51.000000	13.600519	34.705510	60.116791	90.523443	135.157946	126.641003	171.933613	185.125577	147.716159	225.367437	80.917874	45.218547	68.638107	-77.409609	66.476725	-95.802983	0.896130	0.987909	0.852011	0.850832	0.823881	0.819393	1.015567	536.424601	228620.290875	36.596952	929.944820	1013.339841	92.269360	1693806259.562247	0.000000
52.000000	14.978106	39.108777	72.376505	91.894171	124.484576	106.940595	85.073681	58.806596	24.121160	-46.336395	-84.133409	-50.940378	-37.573906	112.422703	169.834349	292.150492	0.894233	0.824395	0.919549	0.996209	0.819997	0.911959	1.022904	452.163845	231902.380652	36.608390	916.909529	934.284069	89.584181	1693806259.566245	0.000000
53.000000	16.935953	46.464045	72.471446	93.221501	83.016131	47.423064	-11.229144	-38.283406	-42.296021	32.832580	78.720126	165.369658	337.844632	308.234451	352.364946	380.905784	0.864759	0.872843	0.871751	0.890130	0.984147	0.847418	0.978687	475.595737	242407.106247	36.598573	933.995623	984.860298	91.521649	1693806259.570244	0.000000
54.000000	18.462153	45.055173	74.401895	61.583919	33.393563	-6.067303	-5.275917	-18.524111	133.885186	142.458216	314.943503	363.585440	298.894742	132.781515	12.859034	-82.575257	0.922880	0.858464	0.895510	0.902666	0.882551	0.889190	0.960097	475.956756	277807.343355	36.606585	1076.969198	1007.702096	92.962267	1693806259.574246	0.000000
55.000000	19.515495	50.421079	60.763528	38.700533	-1.457719	-40.544728	28.229191	94.389731	391.429200	244.384395	237.939986	75.074556	33.467348	-138.825353	76.351337	221.530689	0.906320	0.882788	0.936042	0.887208	0.815161	0.906042	0.976696	514.496273	253221.418091	36.597714	960.046076	919.857246	84.848621	1693806259.578247	0.000000
56.000000	20.599066	44.938069	45.206683	12.357480	-28.159878	18.683055	85.250802	151.838929	160.323087	118.777182	-30.215527	-95.863735	106.436691	227.276223	317.063351	308.758018	0.915790	0.820332	0.967316	0.901798	0.907714	0.933620	0.909444	457.985955	251941.331025	36.603676	977.876436	1026.005308	97.026290	1693806259.582246	0.000000
57.000000	21.778088	44.260881	31.214462	-2.212950	-17.243602	59.856996	131.953124	155.595176	88.333254	-67.052681	29.306179	123.593408	595.662711	227.795664	132.410864	-65.590072	0.931103	0.981908	0.943120	0.827305	0.887556	0.981588	1.003268	504.202527	241206.590641	36.595842	987.882725	962.456325	98.926567	1693806259.586250	0.000000
58.000000	22.689440	40.023752	16.894189	-26.556255	18.245871	133.854478	180.022201	84.257304	-50.297815	5.305119	176.988613	301.437578	448.171804	-20.468366	51.723355	159.285995	0.888795	0.807374	0.921914	0.978215	0.810976	0.953774	1.096920	482.692591	246096.513761	36.595267	1088.296934	963.705479	87.482733	1693806259.590250	0.000000
59.000000	23.794015	35.631251	-1.722440	-7.541736	64.737686	169.368137	109.850276	-12.285140	18.137007	152.468360	302.101854	271.929097	52.538092	97.958860	191.447844	622.787826	0.915390	0.882072	0.903328	0.969153	0.876517	0.984293	0.968555	465.444309	245795.944898	36.601612	1085.721583	999.923566	96.620047	1693806259.594249	0.000000
60.000000	23.372449	29.172823	-13.547211	12.730424	93.827710	135.828888	2.731121	-12.797560	118.272310	260.292734	110.621487	-31.367709	101.276133	266.934074	207.236017	-123.258758	0.979610	0.815476	0.963711	0.956241	0.921684	0.813492	0.982591	461.410177	269355.090572	36.609109	1002.401129	1092.273830	80.347240	1693806259.598247	0.000000
61.000000	24.698096	22.039211	-18.407308	33.775618	107.852419	69.417107	-21.490315	143.566159	261.855171	131.427150	-59.890126	165.403446	381.226025	193.409466	-102.793067	187.653909	0.916472	0.966932	0.870635	0.908912	0.976792	0.907464	0.965324	453.029027	240362.997134	36.605527	1070.120283	957.585046	85.795815	1693806259.602248	0.000000
62.000000	23.517694	14.753402	-4.660417	63.560378	120.555392	10.654412	-7.652088	289.442734	162.416541	-1.858163	62.614970	290.072917	146.616535	7.493643	158.017298	317.169187	0.915124	0.937186	0.882095	0.899639	0.961373	0.848317	1.007671	499.551446	258205.631243	36.606473	931.480547	986.689232	85.340274	1693806259.606268	0.000000
63.000000	24.153933	9.258247	-7.756920	76.672997	72.301287	-6.362081	74.813542	359.691910	24.879956	10.980557	211.001565	164.997649	-30.685380	151.952631	629.067096	22.218723	0.931161	0.924806	0.931966	0.840575	0.812703	0.894266	0.991494	514.983702	234829.309078	36.605851	959.737121	935.408818	85.505419	1693806259.610290	0.000000
64.000000	23.711587	2.242691	7.384473	102.126291	37.000727	0.157432	166.282563	101.307700	-71.363052	174.228711	212.325203	-40.442676	122.832403	340.773972	41.043255	61.905390	0.867070	0.962163	0.964329	0.980532	0.904366	0.923188	1.021244	497.381017	228290.140495	36.594173	1051.883972	932.808173	97.580843	1693806259.614296	0.000000
65.000000	22.202930	-2.619357	23.166413	92.556066	-2.043138	34.843649	147.489587	28.379224	64.929152	309.438472	7.896639	53.758401	212.856117	106.262842	64.022633	552.043773	0.953462	0.971484	0.867807	0.940354	0.825221	0.877534	0.949072	531.086262	240485.255241	36.594134	925.105721	1024.210180	85.746423	1693806259.618278	0.000000
66.000000	21.701379	-6.893272	38.201886	73.327819	-27.594294	100.911990	115.534032	-8.793725	170.839524	129.982589	-31.740334	180.507731	117.610791	-43.591939	504.594226	19.762040	0.897073	0.808837	0.846353	0.915665	0.936445	0.986133	0.986339	531.139097	230956.700828	36.606388	1032.027500	966.546943	87.689296	1693806259.622289	0.000000
67.000000	20.960528	-5.379668	54.978642	51.966678	1.740855	158.087663	38.917449	27.043339	254.662633	-29.130829	326.355696	253.468484	-37.394568	518.262013	142.182427	-114.826344	0.959263	0.850835	0.867439	0.852902	0.871941	0.948308	1.006064	501.613119	249163.806060	36.601733	988.056364	990.088041	81.646324	1693806259.626255	0.000000
68.000000	19.496519	-6.916721	61.833098	23.641469	27.498219	154.818295	6.258870	158.454171	107.944976	8.291207	346.903680	40.965955	159.207199	408.497285	-3.381645	509.419297	0.907130	0.927991	0.879205	0.915832	0.975012	0.898771	0.976006	491.151435	244475.515088	36.599264	1016.783218	959.259605	98.596648	1693806259.630290	0.000000
69.000000	17.920088	-6.793404	65.638745	-1.662200	66.512712	86.345596	-6.230530	149.596190	-47.160192	178.986219	138.733712	14.284487	241.125953	-12.139769	223.459479	139.825775	0.843943	0.809739	0.836515	0.973092	0.956560	0.802694	0.928225	451.904262	265962.040813	36.591051	1053.071083	988.142999	85.066093	1693806259.634291	0.000000
70.000000	17.071396	-5.395970	72.883243	-10.571768	106.092522	26.164434	116.934860	150.754283	12.386165	213.946335	-16.212127	181.632282	64.837682	120.501913	255.705334	94.866284	0.876001	0.969649	0.988861	0.811131	0.958216	0.807467	1.089169	529.689445	268498.806577	36.591150	1042.994816	1005.672092	81.356204	1693806259.638298	0.000000
71.000000	15.194969	0.577637	68.803641	-17.665244	133.309838	-9.288488	283.003541	28.088990	103.297915	113.540686	75.589186	259.134464	11.198377	268.234308	-1.268893	388.026258	0.817750	0.913985	0.851133	0.934456	0.899288	0.958317	0.979012	515.837269	260124.559332	36.590541	1076.587595	912.209850	97.619428	1693806259.642293	0.000000
72.000000	13.438935	6.493463	54.812465	-4.350497	111.983614	2.193763	134.022038	-21.928575	246.674533	-6.196984	193.591855	-33.772680	257.086362	58.343201	156.686771	172.465820	0.990420	0.937598	0.881090	0.864900	0.891668	0.956327	0.912663	479.924765	261919.977696	36.598092	1002.672875	1096.709310	85.852206	1693806259.646298	0.000000
73.000000	11.764372	13.971686	42.982989	22.137289	85.051870	25.034285	111.616530	20.085993	164.599521	-32.045013	265.801219	54.159408	334.005944	13.001203	314.088319	-18.569082	0.981311	0.835710	0.949002	0.847283	0.843857	0.873013	0.991680	522.699258	239482.019879	36.599832	1002.174256	903.967105	99.811556	1693806259.650294	0.000000
74.000000	10.000000	21.534051	25.970061	46.826330	35.128045	83.229216	32.782689	104.486535	35.181238	350.255966	28.322675	247.039105	-37.153157	282.567476	37.247808	707.739552	0.968705	0.839288	0.859705	0.929579	0.804255	0.837080	1.004754	522.734231	240357.249251	36.590839	1050.443722	1056.529461	94.986113	1693806259.654295	0.000000
75.000000	8.172822	29.073005	8.763568	74.970871	7.065294	114.813735	9.103669	147.626925	-51.630231	471.184189	-84.014273	272.620563	-50.592064	335.246988	-32.381765	522.962468	0.950051	0.941734	0.975428	0.878638	0.841497	0.982681	0.940793	493.229286	245992.500596	36.595691	946.778892	1054.891758	83.956937	1693806259.658296	0.000000
76.000000	6.469549	34.626719	-5.986040	91.771444	-18.010573	161.473913	-23.754110	162.751549	7.971121	272.603830	132.298922	34.806200	471.959966	-67.473802	436.478276	-205.474080	0.960586	0.810566	0.985296	0.962974	0.944798	0.849066	1.030459	522.771081	251398.441246	36.602149	987.675055	1036.354928	81.908958	1693806259.662297	0.000000
77.000000	4.984893	39.270025	-11.797347	106.346645	1.616606	100.531806	49.038539	57.550954	196.178706	-70.324167	274.375137	37.800054	402.397363	37.463882	140.639833	344.840595	0.828875	0.918876	0.807597	0.976325	0.954818	0.928065	1.013257	481.760101	239396.943205	36.599692	1020.902714	902.401197	94.479703	1693806259.666303	0.000000
78.000000	2.943402	46.398527	-10.864757	92.818844	19.435278	49.797769	122.127855	-41.221582	267.706891	35.917465	147.115377	182.722463	-59.866115	344.696132	7.230069	388.522646	0.922973	0.897975	0.903473	0.919407	0.929916	0.846618	1.094353	514.931610	262244.849809	36.608291	937.616836	1056.270566	90.297892	1693806259.670289	0.000000
79.000000	1.296169	49.464589	-13.737605	62.340462	62.597785	-9.441014	173.443831	22.503298	128.497369	188.488186	-56.478873	589.328196	25.527622	135.558393	527.030412	109.993008	0.809363	0.947095	0.963726	0.981368	0.935438	0.892703	0.997889	532.858025	233775.528893	36.604367	919.036994	986.651062	84.038336	1693806259.675608	0.000000
80.000000	0.605354	47.563743	-2.972965	38.729701	91.878911	-32.194400	119.989485	95.160151	2.601698	292.822773	-26.148892	163.521853	307.436756	-128.112938	491.207742	218.890577	0.906672	0.806204	0.937124	0.916165	0.835720	0.883982	0.956178	525.083107	254999.227886	36.593179	1043.493390	932.265984	89.231532	1693806259.678304	0.000000
81.000000	-0.602334	44.971457	14.405549	11.995498	106.468400	8.332591	47.481306	212.333486	-1.393723	123.660441	249.538175	-148.822139	267.078809	209.012091	-107.864401	309.136146	0.955503	0.801309	0.853079	0.849278	0.994245	0.836976	1.054152	528.633237	234029.671708	36.607749	1069.477147	949.200925	81.444891	1693806259.682280	0.000000
82.000000	-1.834180	45.697411	29.016717	-11.180776	110.687631	59.859527	4.356084	199.007127	170.916679	23.009145	207.690029	125.366926	-9.426972	256.104123	173.985989	-160.967683	0.914508	0.894168	0.869948	0.895828	0.827333	0.977228	0.931547	512.778845	265483.770377	36.604218	982.073038	1041.007376	81.862021	1693806259.686264	0.000000
83.000000	-2.988264	42.076252	44.001871	-19.802080	81.078140	108.317908	2.215692	83.395126	249.702299	-7.780216	50.905057	358.273589	89.390523	-87.507148	418.420863	158.783909	0.939794	0.820293	0.968525	0.978328	0.905830	0.952281	0.967482	496.740084	229003.174426	36.592757	1012.382875	968.415144	80.850761	1693806259.690266	0.000000
84.000000	-4.016776	35.471450	54.382505	-7.910034	38.825987	123.456800	42.243986	-47.026854	176.491799	161.367577	0.054744	129.200994	286.457519	114.908120	-59.794772	498.883706	0.872627	0.962485	0.916572	0.987832	0.948361	0.969013	1.023250	502.655267	235554.461729	36.603888	1099.935751	1028.017804	97.187108	1693806259.694260	0.000000
85.000000	-3.574920	28.775110	67.726900	10.866020	-4.925892	106.558022	109.609138	8.901289	49.326522	220.929956	109.755674	-107.300685	181.181106	479.104452	24.356091	-12.100754	0.995464	0.924414	0.968828	0.937496	0.822034	0.904930	1.018920	499.098916	243555.689740	36.608743	907.029921	1033.043513	86.610635	1693806259.698258	0.000000
86.000000	-3.451239	22.342812	68.840479	33.904654	-17.692825	70.355446	165.655010	64.942132	-62.329125	134.697864	303.342458	77.777253	-151.549171	420.492177	237.891728	65.879444	0.994996	0.848231	0.992038	0.874768	0.957346	0.972971	1.036714	463.815929	255248.965219	36.598818	1036.425684	926.693225	99.843384	1693806259.702261	0.000000
87.000000	-4.273633	15.437095	72.812255	62.571177	-0.691303	2.225155	136.545994	159.924916	4.361610	7.582423	314.901445	374.511392	109.235143	39.032711	131.746470	300.296056	0.837214	0.909386	0.832117	0.897866	0.877949	0.856619	0.912047	522.329743	254297.991385	36.596656	1018.004177	1068.064905	99.112592	1693806259.706264	0.000000
88.000000	-4.018280	9.117366	68.146917	89.971428	14.528181	-45.048895	64.488310	207.193340	133.231721	32.100289	-85.218233	190.521874	276.218407	188.293426	74.918885	127.674797	0.844968	0.992221	0.882775	0.947108	0.821786	0.905932	0.949116	504.694877	249615.666490	36.605867	938.421015	997.306997	98.003516	1693806259.710263	0.000000
89.000000	-3.671244	2.893483	48.678678	98.040410	61.526526	-31.741587	17.421025	106.458362	197.018902	158.448049	-11.253382	34.032884	137.338981	376.650357	278.653991	126.629264	0.852426	0.991015	0.991671	0.997954	0.908471	0.922525	0.970009	540.615297	240417.416542	36.609121	1028.845109	1038.984165	81.925931	1693806259.714268	0.000000
90.000000	-2.961785	-0.427543	35.497001	101.944785	90.411277	40.200982	-50.953115	30.828748	140.831887	237.037596	247.894966	27.982541	3.668902	10.930491	284.184154	579.436639	0.872707	0.902313	0.930685	0.958746	0.959973	0.995062	1.001415	526.159090	269751.251747	36.591873	1085.367863	1063.319638	97.406913	1693806259.718269	0.000000
91.000000	-2.001754	-6.309882	19.482799	78.062502	117.535929	90.231449	16.819249	-18.403421	-36.969466	129.531457	276.824535	179.543368	143.965825	79.136992	8.531218	154.823834	0.974132	0.879272	0.971682	0.953657	0.953690	0.964238	0.964134	455.988091	259412.196173	36.602287	939.650319	1056.068293	97.615693	1693806259.722270	0.000000
92.000000	-0.371300	-6.997255	8.443202	53.289758	101.798447	127.237239	99.728793	71.724479	-73.219135	12.603576	60.089818	248.114465	412.571393	285.320125	173.209334	-54.493753	0.831745	0.940647	0.946306	0.935987	0.980432	0.811980	0.970118	539.686782	277462.037227	36.592133	939.120327	1023.521926	81.097569	1693806259.726272	0.000000
93.000000	0.299830	-7.163305	-10.155503	26.964374	73.279527	158.523756	149.566216	306.534242	80.796760	-11.061096	-14.082959	-70.731333	111.662794	239.069019	445.608822	236.257105	0.841382	0.985715	0.879731	0.940823	0.992375	0.829534	1.038864	515.850895	269854.594022	36.590555	1080.085911	948.828568	84.573096	1693806259.730271	0.000000
94.000000	1.742686	-7.075377	-10.459807	5.111185	35.761189	100.346975	169.188327	341.695228	157.932230	132.455701	100.914161	-10.942221	-157.114601	-111.388276	21.998380	121.399667	0.921667	0.872579	0.993869	0.855700	0.954432	0.867003	0.914761	526.528839	248059.612933	36.599389	955.027918	1017.835811	96.855467	1693806259.734266	0.000000
95.000000	3.354760	-3.621422	-17.869184	-12.430063	-1.877705	28.939828	80.268323	145.241687	236.333681	248.563918	288.801953	198.134412	412.292254	129.126714	136.900392	81.300584	0.871394	0.813546	0.937274	0.814726	0.991984	0.950377	0.902001	490.741471	278229.852051	36.592541	1048.149502	980.254085	89.950459	1693806259.738267	0.000000
96.000000	4.928074	2.176224	-9.577097	-5.041720	-30.540145	-20.053367	-16.901286	13.307014	78.075349	118.916369	175.256961	211.400458	587.633424	235.184790	750.739780	341.727855	0.840543	0.911677	0.880091	0.898128	0.967871	0.897830	1.063534	522.599476	257551.823882	36.609897	1085.931122	944.186558	95.868671	1693806259.742276	0.000000
97.000000	6.424454	8.286293	7.423041	5.333214	3.143540	-20.773075	-15.393503	-52.125185	-17.662732	-32.188977	-4.508281	72.495350	23.276288	60.422966	239.311264	209.276584	0.880033	0.844505	0.988619	0.831603	0.994890	0.900372	1.059574	516.994892	278078.616601	36.595923	976.608122	956.849194	86.189541	1693806259.746272	0.000000
98.000000	8.269245	14.852478	18.834914	23.981119	16.547954	9.122022	0.325161	8.870656	41.050128	34.571932	-18.382694	-16.045284	-55.691951	-100.630098	-153.858195	-162.702979	0.835389	0.919196	0.856386	0.903680	0.927208	0.855463	1.067680	482.950074	232816.505685	36.596321	1031.334350	1065.685536	80.532665	1693806259.750273	0.000000
99.000000	10.000000	21.480770	34.480526	48.694705	64.129437	81.799084	100.522489	132.586241	156.371374	320.431255	159.531438	404.469614	182.323983	327.999753	250.306895	233.104673	0.933843	0.949915	0.924304	0.929835	0.937578	0.868312	1.008334	450.890669	234483.658358	36.597771	913.732160	1026.926782	85.591154	1693806259.754273	0.000000
100.000000	11.847113	28.989522	52.050497	75.578331	90.766059	126.488358	193.091702	158.308877	205.768815	574.858816	197.849009	461.064661	201.053853	194.823686	199.511915	202.216919	0.949531	0.939590	0.985488	0.932847	0.947740	0.994217	1.031945	516.985107	230791.569228	36.607894	1001.760913	937.913186	87.346332	1693806259.758278	0.000000
101.000000	13.553731	34.201532	62.188001	88.921017	121.836395	145.774003	149.208818	160.665009	150.747286	245.977783	87.083072	104.250978	-41.177932	28.343133	-27.749902	-33.056603	0.921274	0.963909	0.837260	0.952347	0.992533	0.883355	0.977266	542.227890	267044.626301	36.593359	1033.560824	921.529322	81.835019	1693806259.762281	0.000000
102.000000	14.997162	41.298993	74.013417	103.353227	97.014733	109.560013	83.475170	49.006768	29.854120	-54.660335	15.832495	-112.948873	-43.504801	160.396089	164.123466	284.764766	0.914064	0.989073	0.941903	0.952083	0.869724	0.982758	1.088293	488.273197	233951.451490	36.597450	1053.356261	936.474583	84.369856	1693806259.766276	0.000000
103.000000	16.998729	44.925350	74.907371	93.899885	76.506013	47.463879	24.054867	-37.583463	-53.178201	46.362774	57.986523	160.185848	271.241537	838.931661	436.735041	344.827518	0.835933	0.920241	0.868124	0.804888	0.834986	0.915504	1.064897	511.527106	265358.039886	36.595227	916.008253	999.292147	87.541865	1693806259.770277	0.000000
104.000000	18.127126	46.627501	73.802567	71.077084	35.679238	-0.668595	-40.059422	-4.213197	69.709084	137.097331	266.035592	361.184090	228.324292	138.318357	-52.375438	-122.521854	0.894975	0.851424	0.804474	0.940672	0.959239	0.988092	1.046757	538.074197	243970.369803	36.604306	963.824693	903.734713	89.363072	1693806259.774278	0.000000
105.000000	19.221078	47.753502	59.499572	38.697932	-10.745062	-0.015978	19.764215	90.519728	154.868097	273.292014	250.191863	76.773610	3.712799	-93.020076	32.864749	474.639230	0.919363	0.901946	0.853628	0.952814	0.911411	0.842837	0.908685	523.679589	242933.411585	36.602372	1007.326115	1052.169516	86.367732	1693806259.778275	0.000000
106.000000	20.457239	45.873959	48.922493	13.745717	-15.669333	-12.478289	174.982664	183.606546	162.220012	131.627310	-52.313778	-101.771719	71.618565	250.034549	439.673411	753.684290	0.990976	0.965554	0.862334	0.964392	0.971127	0.839413	0.985155	546.434735	249105.122914	36.609029	972.848264	947.959978	95.104329	1693806259.782271	0.000000
107.000000	22.137837	44.823179	31.173037	-3.456420	-4.924375	59.900922	154.433226	198.693198	185.806571	24.154798	7.861827	129.406498	210.898190	390.751769	134.942261	-81.723982	0.957046	0.876787	0.982959	0.867705	0.844618	0.910129	0.960387	463.996061	240523.066521	36.601508	936.033288	927.757675	98.362191	1693806259.786279	0.000000
108.000000	22.585851	40.074105	14.897048	-8.684310	19.740293	119.737725	171.040592	84.124547	-32.581160	-8.899839	144.386434	196.589076	180.471913	40.081265	38.810306	159.604775	0.993239	0.837792	0.957048	0.905150	0.847858	0.870846	1.053072	532.894600	260643.108270	36.601070	1028.548624	951.022606	96.573517	1693806259.790298	0.000000
109.000000	22.942293	34.863964	0.009246	-13.879210	64.577494	138.922908	104.113730	-43.131419	26.087058	188.760314	555.176635	129.662697	-36.937303	56.516272	378.192423	495.489449	0.807181	0.952191	0.843156	0.905959	0.840909	0.877630	1.057969	522.591704	269637.823710	36.603225	1074.555985	969.495845	95.803620	1693806259.794277	0.000000
110.000000	23.614143	29.209979	-4.384123	5.506790	92.672596	126.278368	22.090200	17.022149	138.177393	187.052383	206.931643	-141.257119	87.601026	421.003908	313.912515	-142.209510	0.814139	0.853913	0.904721	0.852038	0.988531	0.964719	0.990470	451.163606	241868.135077	36.592972	950.209282	951.620198	92.324191	1693806259.798273	0.000000
111.000000	24.481734	22.090645	-16.898326	35.079321	122.791993	73.806973	-4.344136	62.262601	229.145797	129.040059	-25.022798	65.738938	222.281351	214.354775	21.165881	143.736469	0.890114	0.997941	0.969192	0.873214	0.824107	0.913376	0.961904	527.308496	235251.635986	36.590806	1080.439479	914.370734	81.564378	1693806259.802276	0.000000
112.000000	24.155559	15.449497	-13.102340	65.905345	107.281903	18.970514	-5.402589	166.468383	194.511486	35.012270	81.541111	301.176165	144.917631	-63.144556	346.094382	355.221730	0.899394	0.969754	0.920002	0.807562	0.875730	0.973671	1.014917	488.455042	249624.970320	36.597374	1090.309974	947.902665	81.716730	1693806259.806283	0.000000
113.000000	23.577059	7.261034	-3.798828	92.312278	78.880925	-26.557796	75.625718	175.111577	38.179115	-43.163256	256.332002	189.828879	-170.645167	182.046455	845.521639	-59.134776	0.939524	0.815257	0.912580	0.826203	0.923215	0.931483	0.967289	516.558341	238424.464027	36.595740	1000.641050	995.985321	94.833121	1693806259.810282	0.000000
114.000000	23.742780	0.619967	7.384242	96.134571	33.441157	0.397031	122.989131	105.768935	-10.796019	170.069219	219.956708	-26.577265	247.668180	249.978738	93.140951	70.825574	0.879395	0.925497	0.924429	0.805479	0.830700	0.977605	1.005567	498.324818	241086.906223	36.605669	1017.581374	1024.805079	86.050824	1693806259.814285	0.000000
115.000000	23.120405	-1.437275	24.520331	91.550120	3.888377	32.879890	179.959331	5.455312	28.869793	251.602979	37.564993	89.089595	566.250111	-26.827488	25.767068	207.991957	0.949358	0.972388	0.945129	0.849534	0.852201	0.992635	1.013746	463.371484	238497.531526	36.606623	950.677198	1046.960149	82.072963	1693806259.818284	0.000000
116.000000	22.333870	-4.634315	39.662425	75.385818	-30.441954	111.549764	115.066204	-14.617551	156.381306	121.021944	-10.042625	190.423237	121.180391	50.619272	320.197421	121.334815	0.923861	0.948471	0.907096	0.947935	0.907923	0.899176	0.962053	527.407812	249232.326017	36.597496	957.062503	1039.440625	97.523233	1693806259.822276	0.000000
117.000000	20.631453	-6.004473	55.841458	53.390255	-23.638110	160.424114	18.136429	22.907602	212.259699	-65.132550	164.960059	177.665109	-100.277503	214.522799	142.624518	64.607684	0.969111	0.840917	0.813970	0.983679	0.931202	0.839095	0.914552	464.822359	253289.322145	36.609813	1061.894774	912.849732	99.677741	1693806259.826280	0.000000
118.000000	19.911055	-10.660424	62.702995	21.956424	17.821727	138.378639	-28.387650	152.162337	99.738956	-19.364590	236.440970	46.700620	156.339673	418.735588	81.485337	478.010774	0.900751	0.994739	0.826344	0.933561	0.919297	0.826978	1.088329	486.021972	267409.041711	36.606543	907.125739	947.098827	91.222691	1693806259.830285	0.000000
119.000000	18.553220	-8.491309	68.727805	-4.442611	62.428249	85.814728	-13.771335	190.741340	-63.588604	149.859506	134.241055	11.207469	308.899141	-92.763387	339.810692	232.123115	0.905472	0.994658	0.963461	0.984339	0.861841	0.872408	1.021893	524.687970	232733.270322	36.598959	943.330099	1043.190157	91.379081	1693806259.834284	0.000000
120.000000	16.564268	-4.562300	76.794607	-3.862028	98.836771	26.420834	63.030782	122.565810	-4.400201	279.233443	-78.681871	394.696043	65.539860	232.751660	312.500901	-195.641247	0.884096	0.886737	0.969444	0.962684	0.993296	0.832424	1.048639	544.724126	245846.384091	36.604246	935.477033	1072.041531	88.204845	1693806259.838278	0.000000
121.000000	15.146857	1.239806	68.078798	-16.700808	111.859958	3.241319	128.734358	43.552867	100.965367	120.440884	56.734003	491.533685	17.079770	216.909356	-0.336909	857.500035	0.840274	0.863469	0.840783	0.821791	0.907969	0.865440	0.991522	472.176770	228862.371448	36.598036	1023.733782	1034.167033	86.166452	1693806259.842282	0.000000
122.000000	13.361924	8.836696	55.695936	-9.899204	104.107057	-27.729873	160.247852	-9.894347	200.745790	33.214429	271.948488	56.052352	191.011781	101.958140	167.383969	176.367268	0.876847	0.934873	0.938390	0.964396	0.943364	0.975841	1.097416	456.925460	247520.305102	36.604375	1060.285788	1073.888969	95.292605	1693806259.846290	0.000000
123.000000	11.723278	14.023563	41.652772	17.947502	85.671434	28.188923	126.179021	33.359817	194.322372	22.321314	282.498972	59.632427	387.474030	-70.312988	378.306976	62.985114	0.900580	0.912332	0.982336	0.986342	0.800296	0.976554	0.912479	465.736697	270481.499560	36.595138	1068.279759	1004.856665	89.686574	1693806259.850291	0.000000
124.000000	10.000000	21.554057	25.151057	49.448591	38.781324	78.792792	44.866090	211.446535	19.335577	337.901893	40.753320	225.523459	38.779686	332.639801	-74.934865	411.771613	0.894706	0.851161	0.801016	0.828613	0.857679	0.800327	0.929441	489.661369	252562.133969	36.591715	1014.993363	1093.002471	83.027864	1693806259.854287	0.000000
125.000000	8.182445	29.115575	7.863975	71.788801	-11.005576	129.237319	-10.882894	346.939437	-9.933573	404.447659	-71.847758	358.479134	-23.924477	252.352604	62.269942	247.366612	0.939634	0.859537	0.986585	0.841338	0.879348	0.913090	1.044706	540.704688	243884.163178	36.599351	1097.027985	995.858986	90.874285	1693806259.858282	0.000000
126.000000	6.400190	33.981453	-6.705236	92.997144	-22.316281	137.328156	-12.460015	187.373784	30.140821	249.937836	133.414497	25.171596	218.311815	-2.526246	324.264238	-0.778682	0.909422	0.970718	0.818198	0.855618	0.814730	0.857293	1.013332	458.180624	271940.569773	36.600257	951.668206	1046.417521	89.662290	1693806259.862283	0.000000
127.000000	4.947592	42.354485	-4.192517	107.532114	-21.385127	101.741771	54.810763	54.328684	142.399344	24.351932	308.759774	-95.121878	192.120370	70.714483	286.596610	202.056620	0.887333	0.980328	0.959883	0.952313	0.936006	0.958014	1.045230	532.721911	247921.699951	36.600900	1078.366244	1006.079927	81.073605	1693806259.866284	0.000000
128.000000	3.368645	45.799439	-17.375669	95.754536	24.890093	50.909490	137.632490	-15.805565	206.029709	-12.675897	136.208960	167.633913	-57.585338	337.808136	-44.616448	390.149678	0.836572	0.815321	0.886142	0.971078	0.816178	0.985463	0.919792	518.792716	260010.824898	36.609970	1010.963276	993.833040	92.212563	1693806259.870287	0.000000
129.000000	1.643819	49.076206	-4.854776	67.346834	63.624352	-12.620244	155.018653	-19.180179	130.065848	171.243088	18.234230	302.758100	-35.320095	136.476973	647.873751	99.485163	0.816109	0.955261	0.882670	0.957433	0.870071	0.929959	1.067826	548.208988	260238.155316	36.596045	934.828601	975.238051	86.466589	1693806259.874289	0.000000
130.000000	0.584838	50.116797	-2.338326	38.442961	95.711948	-5.507415	138.892389	94.877769	-41.181152	180.675273	56.987414	74.894497	353.877948	-63.641901	247.275284	174.117702	0.841554	0.910056	0.853522	0.957385	0.957814	0.882330	0.923987	467.871474	258828.447363	36.600545	1034.103497	922.754533	93.926947	1693806259.878288	0.000000
131.000000	-0.464648	48.531498	15.550692	6.939141	111.327985	2.663454	58.274215	142.938987	-8.053973	123.906535	434.530793	-71.919016	208.481924	234.646754	-142.137027	398.643615	0.811640	0.808474	0.975213	0.949561	0.803349	0.894879	0.951742	490.047609	231354.097179	36.605277	1074.688421	935.062050	87.451567	1693806259.882287	0.000000
132.000000	-1.397473	46.695199	28.894623	-12.039334	97.101454	59.903621	-13.366773	161.834865	93.690065	-75.633208	501.037731	130.393324	-138.045110	275.563729	159.087110	20.572544	0.804190	0.949147	0.805731	0.988086	0.954669	0.971625	0.912510	510.757738	270847.266214	36.593835	968.788575	954.212406	91.237702	1693806259.886287	0.000000
133.000000	-2.544835	39.626706	43.988840	-13.582511	86.092479	128.314012	-42.222848	84.228712	215.546863	-13.532873	125.422680	362.781984	79.090811	-70.905480	364.028297	158.445487	0.942150	0.893233	0.809649	0.918157	0.970877	0.899839	0.961040	497.467306	259593.755784	36.592179	1083.055051	963.634815	91.654493	1693806259.890288	0.000000
134.000000	-2.812514	36.678273	55.983724	-19.007079	39.408853	120.487776	29.502360	-29.573049	400.433798	140.289633	-49.932966	141.101457	646.003026	96.802947	-22.053230	683.960375	0.987582	0.972526	0.867225	0.878463	0.872833	0.821882	0.910481	470.605454	271155.299678	36.601561	970.518673	963.623802	83.354258	1693806259.894290	0.000000
135.000000	-4.485809	29.138925	63.745702	2.378502	8.146161	120.398970	113.626402	-58.388050	96.895787	236.327907	109.513306	37.781684	166.154681	713.792526	119.350151	69.992204	0.992525	0.905489	0.967055	0.852915	0.936860	0.951940	0.959285	468.930574	244287.260512	36.606463	929.522675	1060.556421	97.844789	1693806259.898290	0.000000
136.000000	-3.946938	22.287895	75.581624	33.404105	-36.874127	67.897649	194.800861	65.656796	-39.033936	114.199632	259.697390	83.486160	-17.984162	368.016259	498.815865	172.644648	0.883214	0.956955	0.837727	0.945860	0.837375	0.994691	1.077879	541.312230	239785.122974	36.591880	981.269254	953.708161	80.494528	1693806259.902292	0.000000
137.000000	-4.243938	14.942741	68.230324	58.147154	-15.895548	13.035467	167.438898	173.885661	15.022135	11.527567	175.116919	196.737736	109.472632	-250.884886	138.900491	439.821261	0.812629	0.962279	0.891917	0.979265	0.866989	0.891486	1.074897	490.269989	246169.068120	36.606791	975.574341	1072.770715	80.458600	1693806259.906293	0.000000
138.000000	-4.181011	8.201912	61.646527	92.913274	18.143627	-23.683623	64.958244	180.335735	163.249833	-27.904437	-26.130637	196.256518	393.132624	152.544290	-163.037447	68.988223	0.850539	0.899554	0.831316	0.839427	0.829478	0.895045	0.906735	542.955178	262854.275481	36.608187	1072.840760	1098.344194	88.258130	1693806259.910291	0.000000
139.000000	-4.081530	3.367527	51.322485	101.979854	64.933651	2.567322	-22.220407	103.553814	189.654553	133.720669	-24.846794	-12.168784	136.132735	342.316385	277.962608	-12.494032	0.857029	0.870734	0.831994	0.964398	0.954925	0.803139	1.019452	453.584935	259383.026392	36.599148	944.419445	1077.020466	84.152091	1693806259.914293	0.000000
140.000000	-3.177862	-4.735923	35.849539	102.874535	112.348801	41.482601	-45.840654	-22.895628	115.176371	239.624078	161.026142	97.009220	-154.583666	-26.615740	180.547138	518.798618	0.941318	0.874962	0.838040	0.964905	0.891381	0.836701	1.003044	511.658369	275945.157810	36.600013	947.682955	930.020171	83.342708	1693806259.918295	0.000000
141.000000	-1.580678	-6.434139	20.307025	82.458950	134.031205	89.601773	50.138377	-34.937001	-24.483747	114.945341	261.297735	544.097876	152.909470	69.472610	-122.657607	90.386579	0.956584	0.866945	0.840424	0.815565	0.845226	0.971668	0.915709	537.655683	254541.179769	36.598148	944.814985	961.441189	84.952260	1693806259.922302	0.000000
142.000000	-0.507381	-8.112583	7.952798	51.604514	114.029264	125.018929	114.138256	49.778396	-22.635886	22.207793	55.095042	237.219964	275.955977	324.614000	158.013490	99.735971	0.941030	0.925401	0.861591	0.970490	0.860621	0.985971	1.043653	536.901364	233297.597428	36.603589	935.661989	1009.547176	83.235939	1693806259.926298	0.000000
143.000000	-0.061935	-10.326196	-0.041114	24.653997	83.942902	135.678181	150.939034	154.538559	72.368222	34.378839	-118.491170	-62.362860	82.740482	219.603685	509.738654	460.342968	0.981308	0.924435	0.890807	0.945480	0.864170	0.981034	0.908677	474.966087	275606.795821	36.594412	983.706167	1026.764599	81.869265	1693806259.930296	0.000000
144.000000	1.469356	-4.395843	-8.893021	2.367502	37.879532	92.993982	167.428478	205.900509	208.349358	184.049936	95.851125	73.037087	57.172992	-115.854237	82.382315	123.125072	0.956133	0.904288	0.833727	0.926559	0.825949	0.961136	1.005033	517.615017	263426.929491	36.598630	962.050840	950.041165	94.112813	1693806259.934298	0.000000
145.000000	3.102766	-3.522823	-9.635731	-19.091333	10.599603	19.774137	75.639995	124.166664	162.448496	225.979631	209.834663	263.279380	196.259352	117.482715	51.415324	83.625999	0.891451	0.820006	0.836963	0.825365	0.858221	0.997414	0.950560	520.741201	247777.128870	36.592115	1027.295834	1061.104065	80.013601	1693806259.938295	0.000000
146.000000	4.771770	3.491314	-5.059866	-10.718455	-37.613719	-5.700391	-23.422437	25.816164	75.321372	118.308719	148.302474	190.254059	254.661269	348.626109	302.631043	222.542737	0.883188	0.907348	0.890005	0.828878	0.888163	0.960525	1.085332	497.223991	259828.871299	36.592546	989.768160	906.320572	81.415880	1693806259.942296	0.000000
147.000000	6.321742	7.290302	0.787572	-9.989170	-8.114443	-29.001720	-39.822476	-37.573417	5.264715	-4.630579	-57.597858	74.871282	-6.806780	73.580393	133.463746	204.052301	0.817105	0.996436	0.816731	0.843504	0.829261	0.989743	1.049340	452.245746	247242.789482	36.608889	939.565337	1059.196701	82.752010	1693806259.946297	0.000000
148.000000	8.226995	14.526918	19.441810	16.958521	13.688930	9.814720	4.918240	8.004366	14.662805	-31.442275	-67.310335	59.015326	-3.363087	-17.446936	-128.104836	-135.683282	0.931426	0.967275	0.805434	0.977646	0.870899	0.995171	0.942978	455.235224	235961.804834	36.604269	1012.244074	1064.814334	86.905414	1693806259.950298	0.000000
149.000000	10.000000	21.274512	34.244861	49.064723	61.241217	79.912621	90.244812	108.444068	121.281724	306.795980	221.624002	161.105198	290.798066	274.791905	363.478012	605.702271	0.978337	0.906950	0.857803	0.886044	0.969913	0.913648	0.989923	495.837351	264854.403583	36.601391	929.127451	1085.881168	83.101083	1693806259.954302	0.000000
150.000000	11.815548	28.155400	52.053222	70.086650	94.505531	138.814799	184.275710	223.841632	181.052195	502.844569	253.620574	358.223437	247.840463	336.949122	324.646983	387.842700	0.818291	0.804127	0.822559	0.898606	0.846486	0.876255	1.022535	465.144417	231191.540337	36.604761	1020.754210	1078.080813	89.072087	1693806259.958307	0.000000
151.000000	13.405450	36.010635	63.264080	85.022846	116.316331	128.879104	143.072048	161.293739	147.271673	243.077286	83.591181	71.346730	88.248482	-121.880051	1.109172	-127.229859	0.878130	0.928030	0.841903	0.870366	0.905352	0.958124	0.903253	464.757528	248839.230048	36.592811	983.071391	1059.463159	88.246685	1693806259.962314	0.000000
152.000000	15.337007	38.384205	70.157370	90.890000	102.188472	120.440842	95.517220	52.939011	-2.962242	14.060477	-29.479495	-52.738442	-33.136691	88.059898	173.904994	222.456273	0.878849	0.904930	0.950654	0.934397	0.850297	0.858288	0.900300	486.038378	259724.046236	36.608843	948.039847	919.027611	98.714422	1693806259.966309	0.000000
153.000000	16.681397	46.690351	67.468847	80.664935	74.578068	51.153170	8.089244	-0.300646	21.529836	-48.018716	152.017786	191.853399	507.411092	823.232176	281.133574	367.963174	0.808491	0.927993	0.985530	0.944021	0.853968	0.845977	1.000038	495.196612	252919.217671	36.605797	1080.646236	940.700497	92.745030	1693806259.970309	0.000000
154.000000	18.363012	49.671670	67.935576	67.211747	32.777060	0.249682	-21.139014	-35.768894	70.772890	135.216604	577.628517	337.965795	293.650672	269.204672	-36.597092	-228.894360	0.941423	0.825103	0.902273	0.942656	0.961077	0.833487	0.996739	490.653152	261910.470347	36.602747	1044.657416	1017.329921	81.257200	1693806259.974312	0.000000
155.000000	19.811983	50.357452	60.663286	38.355049	2.619850	-22.464032	5.597116	201.770164	234.315889	243.410142	357.234367	78.151436	2.198865	-185.111202	-11.347215	214.350711	0.825415	0.953731	0.893064	0.904527	0.858768	0.945117	0.951810	474.948626	250726.268366	36.598458	1099.153668	1012.220430	81.041456	1693806259.978311	0.000000
156.000000	21.026517	48.582910	47.794959	15.674158	-27.609452	3.428905	92.638807	399.689013	181.515984	127.956429	38.053664	-127.350917	12.973568	216.188004	497.289465	300.634176	0.885347	0.805234	0.953456	0.952271	0.969505	0.893841	0.902201	487.608448	253969.663235	36.603538	1053.684055	904.615253	94.407039	1693806259.982313	0.000000
157.000000	21.925129	43.813339	31.157201	-13.110732	-23.295060	59.868970	184.642012	144.285922	85.887087	-5.812442	-78.692309	131.986201	322.425026	248.798244	129.705631	101.364552	0.959183	0.890376	0.862582	0.903664	0.806623	0.871498	0.901867	514.100324	274970.941215	36.602350	905.042560	908.877000	97.897182	1693806259.986309	0.000000
158.000000	22.407596	39.501159	13.292949	-18.785234	17.406791	126.163021	139.041826	83.797786	-35.454447	13.851825	177.414991	215.147073	191.427565	20.932532	91.640636	158.465109	0.918682	0.862626	0.841546	0.919189	0.803304	0.953796	0.982080	541.574033	242268.722924	36.593900	999.602299	975.333589	92.018879	1693806259.990307	0.000000
159.000000	24.092547	34.365968	2.748591	-16.367787	61.303620	124.368130	102.881549	-4.027313	4.672833	190.880273	244.549765	293.246266	-111.919049	-7.495122	589.029028	234.439190	0.998353	0.900388	0.911797	0.874951	0.931252	0.855463	0.922808	547.818360	261110.118916	36.607599	906.625726	1063.339547	95.929005	1693806259.994309	0.000000
160.000000	24.379145	29.471056	-12.528199	12.765518	112.705225	139.248330	5.698691	-7.700627	112.274286	220.932606	110.513642	-63.269555	52.535029	202.410734	601.024155	50.068774	0.902859	0.877440	0.922262	0.885613	0.800515	0.939593	0.910218	465.120469	250492.012027	36.604121	1092.088369	1072.247377	99.568107	1693806259.998316	0.000000
161.000000	24.344519	22.295541	-9.637347	34.565326	129.736935	70.280313	-53.488889	65.016602	473.790891	131.828732	-121.790116	197.211059	396.720921	163.198549	31.342153	75.945249	0.900217	0.986511	0.956564	0.906979	0.822675	0.999509	0.941444	522.247990	253921.310957	36.590596	907.579427	1051.102465	83.832198	1693806260.002313	0.000000
162.000000	24.207328	15.008222	-10.821670	57.745729	112.867668	19.974857	-24.810549	166.569936	292.077265	4.234525	41.581515	340.379209	174.085836	-26.042803	160.596309	324.375113	0.888786	0.805430	0.959937	0.953582	0.804949	0.808720	0.986778	483.084799	269375.583721	36.604037	904.007293	956.376550	96.371221	1693806260.006308	0.000000
163.000000	24.095244	7.446560	-7.377251	90.203217	85.026500	-6.179610	73.604150	223.599787	61.042359	-3.850016	231.454875	202.981813	-123.152704	178.088419	302.354896	-27.253940	0.998598	0.952297	0.903210	0.867066	0.949128	0.959457	0.968703	462.251470	245532.019578	36.607685	978.097486	1083.508698	88.429752	1693806260.010312	0.000000
164.000000	24.041874	3.634316	7.658027	101.171876	38.269660	-8.722142	176.738854	121.797450	13.250400	151.523787	164.273790	-106.738365	124.240766	362.624186	-58.388507	64.019103	0.841402	0.948299	0.868948	0.880307	0.841522	0.909017	0.920418	472.437828	240279.007621	36.596698	1030.914602	904.730291	91.412552	1693806260.014317	0.000000
165.000000	23.178539	-1.256684	24.436207	91.696339	9.155930	43.693392	193.737937	4.919648	26.987528	197.535171	30.405184	6.440251	390.535814	5.872836	-22.293293	708.933898	0.889607	0.832879	0.939937	0.969545	0.847892	0.871507	1.070551	547.876474	257232.711220	36.597458	1065.761323	916.955149	84.120347	1693806260.018321	0.000000
166.000000	21.494488	-6.829353	40.739778	82.703183	-7.503644	103.616195	125.790698	-40.641942	196.278905	131.536825	-18.310936	235.402159	117.286161	67.398131	318.408653	83.604601	0.921473	0.936057	0.984901	0.865705	0.878005	0.944565	0.926133	539.751359	275884.533221	36.605264	1043.301430	1074.537017	86.915172	1693806260.022322	0.000000
167.000000	20.737521	-6.425831	55.407311	52.364595	-24.613709	160.812502	34.718840	28.505513	186.667466	-0.022495	161.340042	187.808910	7.810914	292.742942	139.754486	-3.113449	0.843540	0.967066	0.832415	0.820041	0.914423	0.816289	1.078609	476.456045	229158.746890	36.604242	1071.042859	1047.550666	83.355458	1693806260.026320	0.000000
168.000000	19.765147	-5.320214	64.170575	25.803995	26.268525	149.887782	-50.755801	158.270638	108.647577	17.150971	247.117734	51.098067	180.626460	274.151833	-32.958933	233.006061	0.992343	0.981098	0.988544	0.895468	0.808841	0.850816	0.918848	527.681802	247279.193068	36.599842	1030.270982	1035.732834	94.759286	1693806260.030322	0.000000
169.000000	17.924088	-6.217192	67.077974	3.174459	61.133327	85.877157	-8.413641	196.233249	-26.264552	158.163111	135.185428	-8.967507	352.023350	-140.562836	332.708495	146.774587	0.920141	0.802895	0.892430	0.962198	0.990408	0.960446	0.960965	522.861069	234994.935469	36.602506	1062.963358	981.385585	92.980404	1693806260.034321	0.000000
170.000000	17.005149	-4.175070	76.226895	-20.246194	110.411750	20.205377	63.586438	137.928365	11.684330	175.280841	-64.875032	178.475420	126.664122	221.755876	209.308485	106.184501	0.827628	0.875927	0.856278	0.957956	0.951797	0.995167	0.937073	453.998473	229764.344889	36.598812	966.424654	1020.965784	83.593067	1693806260.038319	0.000000
171.000000	15.426821	2.112015	63.701105	-6.613829	134.988904	-2.503801	163.301375	21.641457	108.057064	131.172496	35.055864	276.380224	18.394957	771.984596	80.626890	420.633236	0.984267	0.847805	0.987771	0.886091	0.999387	0.853267	0.911467	464.534342	231734.776104	36.590500	933.224286	914.593163	88.734078	1693806260.042315	0.000000
172.000000	13.503733	8.678627	54.321402	-10.036359	97.816087	-27.674996	154.483699	-53.845469	246.266976	-48.731947	214.705395	66.604940	446.118512	114.550314	171.012884	202.276678	0.825796	0.967123	0.939111	0.956024	0.858755	0.871718	1.025330	534.759594	259799.684272	36.598167	991.900484	1096.178678	82.865901	1693806260.046322	0.000000
173.000000	11.748201	14.046773	41.535360	20.410469	82.507480	7.676487	120.767555	16.373422	195.002791	-26.796903	236.276154	-44.183140	357.847224	66.704278	467.061902	-50.917178	0.809358	0.872520	0.950787	0.940581	0.814580	0.981341	1.060867	529.428791	245425.520827	36.600418	1067.291439	910.641203	88.024746	1693806260.050327	0.000000
174.000000	10.000000	21.513640	26.362556	47.684551	36.357166	82.163767	92.577203	130.955828	48.414117	354.834703	14.893510	156.170624	-12.021826	285.655978	9.400222	318.536440	0.853194	0.996791	0.892156	0.940019	0.843028	0.956308	1.035542	484.872995	251359.858880	36.591173	955.460581	931.397622	86.447268	1693806260.054321	0.000000
175.000000	8.238497	28.084744	13.098792	76.429676	-0.152610	116.961099	-14.944954	182.647980	-42.506718	526.112900	-80.894789	196.384201	13.286562	322.579040	156.743451	192.712040	0.907097	0.833776	0.913242	0.930579	0.849151	0.965543	1.045421	496.050130	252089.024957	36.592560	1004.803447	1007.477787	99.229349	1693806260.058317	0.000000
176.000000	6.624060	35.575279	-4.607753	98.077036	-18.359947	136.755533	-61.036944	129.303680	48.742437	246.896725	263.549706	53.305796	218.748765	-5.516934	626.809928	-67.880328	0.831215	0.848376	0.863812	0.857404	0.893554	0.849096	1.005043	490.057555	233458.304137	36.595223	961.680126	923.363918	91.209079	1693806260.062322	0.000000
177.000000	4.560819	38.552025	-14.882984	89.055985	-26.844301	95.069503	46.969265	60.228959	200.083710	14.952684	583.582830	-64.191267	308.806323	43.490503	246.134881	312.199826	0.967650	0.823396	0.805002	0.939827	0.995167	0.898261	0.979150	475.678348	236961.350922	36.607779	990.110673	1055.430637	81.338422	1693806260.066326	0.000000
178.000000	3.059636	42.908963	-18.059358	88.366316	17.406671	51.329901	141.892691	-37.601424	229.855800	31.231372	144.223329	155.827948	52.835517	417.688170	7.416561	384.560602	0.937520	0.981683	0.967021	0.966130	0.961860	0.901829	0.987541	466.042311	261825.402947	36.590739	943.576451	967.093922	86.479430	1693806260.070328	0.000000
179.000000	1.289530	48.161066	-10.561126	69.782065	65.111275	-11.562635	199.106701	-8.501812	116.201669	184.519217	-12.916984	646.125968	38.753247	136.759707	191.660994	36.501068	0.978180	0.972639	0.806537	0.852342	0.829917	0.941146	0.940919	475.249758	270344.083629	36.592417	1094.611649	1050.689396	84.742303	1693806260.074330	0.000000
180.000000	0.281919	47.201150	1.211546	38.504380	108.703736	-30.076395	155.685299	86.830789	2.803481	284.684746	-16.335839	180.925621	359.816021	-4.139313	330.393169	372.127293	0.919601	0.963662	0.915465	0.968550	0.893834	0.968042	1.061555	517.662139	235385.104977	36.601526	951.351678	1086.148614	85.527009	1693806260.078330	0.000000
181.000000	-0.914548	48.453400	11.543804	9.643452	120.804779	7.675554	52.583680	141.727429	-66.467038	123.665441	207.071089	-155.751058	254.107056	226.842775	-163.567719	581.781278	0.899247	0.944137	0.995548	0.877942	0.971436	0.931451	0.929110	476.769953	269465.933158	36.600622	959.483556	984.595000	86.732323	1693806260.082320	0.000000
182.000000	-2.064300	46.250633	28.856090	-7.804156	116.270643	59.860159	12.206409	168.940304	92.480755	18.092313	289.546643	130.822992	38.848727	283.739459	176.472556	-80.133210	0.818737	0.959087	0.939071	0.933488	0.950484	0.855221	1.064933	504.493878	260207.988086	36.596796	988.416277	1085.109294	87.308050	1693806260.086321	0.000000
183.000000	-2.578781	40.922658	43.198718	-11.715864	79.178896	102.818289	-15.783892	82.032906	189.433112	11.560665	37.718718	251.183574	21.704211	-2.518488	204.882923	158.949825	0.863699	0.822894	0.835560	0.804566	0.897232	0.833926	0.924307	471.896233	259516.614790	36.602945	1079.334917	1074.328909	81.147089	1693806260.090323	0.000000
184.000000	-4.001116	35.735920	54.046680	-6.420603	33.157012	166.384419	28.052156	2.376319	166.429078	165.943086	-4.311230	126.157487	288.205862	9.398755	100.661379	365.995256	0.825527	0.935916	0.917565	0.887894	0.946521	0.884340	1.063980	477.082813	262586.077330	36.590124	1090.326031	988.017906	97.188395	1693806260.094322	0.000000
185.000000	-3.867215	29.944353	66.992964	13.686263	7.173927	107.328714	124.217912	-41.486731	64.906298	244.160548	109.806121	-24.390446	170.295952	225.239031	87.928880	-22.475232	0.850605	0.979864	0.998063	0.968477	0.978467	0.831876	0.997095	471.894768	277334.701966	36.607662	998.719314	1093.463627	89.006831	1693806260.098325	0.000000
186.000000	-3.433231	22.288790	77.521111	33.583319	-30.887434	71.727471	156.686532	135.504336	-0.865441	134.639953	226.666581	92.808822	-103.863858	319.190707	474.328260	91.502794	0.865505	0.894790	0.853936	0.815252	0.870249	0.961219	0.960889	536.238875	267763.067247	36.597347	1001.543561	906.117091	91.334655	1693806260.102329	0.000000
187.000000	-4.599341	14.630347	71.497382	66.021336	-19.780079	19.178453	163.364401	330.202777	7.500241	-33.149077	186.924233	331.132538	116.567202	-247.390923	133.235114	440.627318	0.875823	0.913257	0.931524	0.842369	0.996469	0.843799	0.925941	499.996801	261841.173309	36.598660	1079.754379	1048.799244	80.695184	1693806260.106332	0.000000
188.000000	-3.917867	8.856704	61.723561	86.101685	21.857296	-6.072851	66.423591	207.762289	344.552076	26.500250	46.522539	186.737059	302.786874	351.608983	24.933779	28.582057	0.840616	0.890463	0.905710	0.929413	0.826366	0.966877	0.969012	489.958799	228964.098000	36.594013	1064.360063	926.648995	83.127597	1693806260.110325	0.000000
189.000000	-3.597489	0.731225	54.392290	90.685307	64.228826	-12.286230	6.568340	105.619853	351.614738	131.163504	38.713815	-117.015230	260.999218	440.919643	226.309168	99.030283	0.937811	0.913010	0.825262	0.850027	0.996108	0.957092	0.988313	547.883785	263530.892983	36.592390	935.189446	1021.141504	97.373658	1693806260.114324	0.000000
190.000000	-2.838763	-4.736628	37.278891	87.295922	99.139480	36.259087	1.465324	32.734747	271.316716	184.175730	215.172113	51.546291	-38.506834	80.351432	211.676729	479.086602	0.919472	0.969107	0.822052	0.920794	0.944636	0.853253	1.048285	495.553948	250055.791653	36.592546	1088.085130	954.016866	83.061216	1693806260.118327	0.000000
191.000000	-1.959504	-5.713004	21.088697	70.388802	130.256417	89.890435	24.779080	-51.744966	-13.697547	126.674147	177.533146	350.492185	272.841756	77.522007	-47.605105	44.170766	0.872517	0.916965	0.870457	0.955380	0.862434	0.903217	0.935702	460.691806	238661.521946	36.594778	927.630103	978.608008	96.021422	1693806260.122326	0.000000
192.000000	-0.677401	-10.654401	6.182515	53.377894	110.879784	160.032397	124.116594	37.320070	-6.930359	-37.122856	75.910530	253.071737	351.763370	270.017819	344.228442	123.621173	0.990403	0.853564	0.996288	0.807577	0.905905	0.843507	0.900080	516.314747	247328.018579	36.601518	1087.737693	1015.747969	96.644967	1693806260.126328	0.000000
193.000000	0.418059	-8.526030	-1.717249	26.374138	74.259584	119.372104	188.142481	141.552708	80.368176	40.189996	24.541410	41.172395	67.485335	204.388352	535.919542	446.075149	0.815912	0.915798	0.861753	0.858620	0.941662	0.997530	1.005028	524.555238	230873.206465	36.592203	984.644112	1027.160883	96.200813	1693806260.130329	0.000000
194.000000	2.075579	-4.574169	-6.738050	-4.379240	33.295075	82.457824	133.359128	228.708465	212.790097	176.877931	82.970406	4.001801	-23.929339	-9.255138	54.873688	265.985070	0.851023	0.815100	0.960624	0.951064	0.840316	0.887782	0.931561	512.171495	240449.696641	36.602078	976.503837	953.826062	85.826778	1693806260.134338	0.000000
195.000000	3.152597	-2.791479	-11.052011	-15.939840	-10.327637	21.948124	78.540830	140.323526	190.666182	251.567440	222.688890	240.076983	216.830583	125.681965	66.480243	-194.001338	0.923166	0.936266	0.952562	0.975813	0.839639	0.950219	0.974407	548.863814	261311.200244	36.605743	1080.713102	1084.273824	91.710229	1693806260.138333	0.000000
196.000000	4.853654	0.902292	-3.537541	-7.103871	-29.565633	-13.519274	3.221822	7.560370	67.133818	133.456137	181.454538	218.354253	217.333304	312.712811	342.829265	760.280809	0.831613	0.895632	0.947843	0.805703	0.964838	0.838075	1.081470	476.960602	230563.434095	36.607188	953.335287	938.807037	92.360999	1693806260.142328	0.000000
197.000000	6.532538	7.713747	2.098821	-2.016871	-23.360636	-15.621909	-9.595712	-9.452488	-52.494663	-18.812184	19.483707	41.278110	11.773679	69.199892	144.630875	182.255351	0.933130	0.979174	0.964080	0.813523	0.961334	0.800560	0.968644	502.155291	275732.905559	36.600054	1016.861449	1061.807029	94.259632	1693806260.146329	0.000000
198.000000	8.310431	14.308716	19.143973	22.748366	27.477763	9.914845	29.490400	-2.231095	-4.480433	-42.292197	-79.364951	-101.438509	-78.230329	-67.193647	70.222467	-110.379941	0.836769	0.971405	0.901060	0.851282	0.910827	0.976960	0.989391	509.135112	237585.607067	36.605379	1093.474019	1065.375071	98.623614	1693806260.150330	0.000000
199.000000	10.000000	21.363148	33.647443	49.311076	65.586375	83.836801	93.648513	133.189859	142.164144	342.334449	357.252232	481.085876	207.563461	217.276601	365.074773	431.886225	0.939840	0.884865	0.901794	0.922698	0.922938	0.945251	1.039662	462.114129	261147.009753	36.595539	920.277331	1043.806292	83.534704	1693806260.154331	0.000000
200.000000	11.756068	27.891439	51.994471	73.697242	99.753849	147.967858	164.441773	166.168669	244.371786	416.596915	209.718561	469.087735	280.320425	209.852933	344.023917	216.821182	0.826742	0.869333	0.971829	0.914761	0.961494	0.923390	1.032676	510.070136	248831.508375	36.602413	967.749558	1030.727311	86.660535	1693806260.158337	0.000000
201.000000	13.475086	34.677482	63.705508	101.120854	131.320776	134.169040	154.630535	159.629881	167.497299	248.094377	101.214311	75.306577	-37.532381	-94.048070	-54.977722	-60.065448	0.993116	0.807784	0.983499	0.981653	0.984669	0.964782	1.067468	525.521528	249264.667973	36.601052	1040.990635	1057.587109	92.855993	1693806260.162344	0.000000
202.000000	14.952668	39.903784	74.932423	99.651173	104.706052	98.526525	85.078396	55.626005	42.273168	-0.784186	-62.899876	-110.646362	-73.719054	106.647747	173.529258	324.340323	0.851802	0.916844	0.862713	0.878728	0.881620	0.829166	1.003573	471.120116	252480.022095	36.607263	958.451212	1033.345129	89.730255	1693806260.166358	0.000000
203.000000	17.133258	45.345813	69.655237	91.721333	79.591251	46.589700	28.563968	-57.379257	-80.680385	14.734582	86.310724	192.628622	301.742285	540.470165	210.584360	314.180990	0.906380	0.983074	0.933657	0.917884	0.997996	0.869758	0.968385	531.369999	278429.879142	36.603420	980.303963	1038.145747	83.134638	1693806260.170356	0.000000
204.000000	18.304996	48.226590	64.587710	63.916907	34.994133	1.737931	-57.972713	-12.844785	59.256033	181.957173	188.466829	290.307321	225.132431	257.778800	59.766593	-182.848435	0.815146	0.906729	0.831977	0.966451	0.957962	0.972393	1.038806	472.747206	271822.648668	36.594871	994.719186	1084.826040	95.570478	1693806260.174339	0.000000
205.000000	19.414406	49.576495	61.830490	38.705250	-7.847439	-20.714930	14.174827	94.569818	221.234431	260.807957	159.998976	81.623024	-86.384027	-136.008916	-8.917396	226.077457	0.890391	0.941894	0.830792	0.808366	0.931799	0.881493	0.976759	532.113302	255351.126514	36.590124	1044.342176	1037.925905	97.335993	1693806260.178338	0.000000
206.000000	21.017784	45.715841	44.152731	6.397174	-27.505012	2.946019	86.330239	179.123782	170.272696	114.352615	-26.331322	17.263731	-4.858212	179.569413	222.082816	234.527031	0.896815	0.965477	0.989521	0.809979	0.834592	0.936833	0.916551	463.763076	263937.651610	36.609417	969.716654	1032.860345	95.882215	1693806260.182337	0.000000
207.000000	22.331145	47.354980	31.156245	-8.941661	-9.413517	59.914293	185.094080	199.680564	85.878106	-23.351554	3.131435	126.387430	307.921614	219.350225	261.748721	-88.623624	0.828677	0.868534	0.830054	0.887608	0.813766	0.827158	0.959256	504.582016	242842.835198	36.604217	1070.464259	903.290534	97.858975	1693806260.186340	0.000000
208.000000	22.218177	39.683572	17.222852	-7.439004	18.119349	127.592603	148.852218	83.222167	-3.271644	46.519796	138.683959	229.247351	380.803353	77.382991	-13.690174	158.418332	0.861535	0.975812	0.927503	0.959307	0.842627	0.976902	0.986441	524.359821	278073.676317	36.602713	947.576109	974.570130	96.055312	1693806260.190350	0.000000
209.000000	22.960926	35.644878	0.597028	-5.936726	63.858995	148.832500	204.503072	-12.854018	-20.960362	148.036082	228.156297	134.978447	-41.141360	-29.492772	624.922161	699.304321	0.815750	0.978468	0.821788	0.950936	0.847714	0.803785	1.099279	473.611609	263572.937671	36.593237	907.773170	1058.899436	84.878518	1693806260.194350	0.000000
210.000000	24.420029	29.960669	-9.837236	9.792745	90.601388	125.254357	54.226013	1.391325	111.148665	258.772212	110.199238	-140.709724	186.508876	220.671414	295.595388	-72.443858	0.880950	0.970413	0.942593	0.987652	0.929764	0.832723	1.093540	516.180676	262054.648384	36.595396	1054.953745	1011.414250	86.293355	1693806260.198349	0.000000
211.000000	24.587719	22.067526	-14.131342	34.386007	123.896359	73.949701	-87.039165	59.921058	218.351041	127.551289	-17.076173	97.942283	364.912886	155.487559	-62.349904	245.406601	0.987947	0.935001	0.893419	0.837458	0.906760	0.910150	1.041954	489.390088	254953.939809	36.597883	1016.375706	954.394907	86.264506	1693806260.202349	0.000000
212.000000	24.610932	15.406099	-15.313784	62.296581	123.719390	0.508264	12.513911	185.068678	175.595512	-57.989630	80.830655	340.467512	161.196279	78.499398	160.644958	280.759926	0.927038	0.826008	0.980359	0.833464	0.933798	0.884586	0.956803	542.429822	239805.150117	36.608381	1060.962553	944.201922	95.605377	1693806260.206359	0.000000
213.000000	24.250660	7.747403	-1.868334	92.632024	84.296020	-12.928871	73.715965	230.870970	14.380282	-18.503550	307.293168	178.344414	-78.380896	158.854676	425.307980	-8.051901	0.802016	0.938164	0.876072	0.926998	0.944768	0.861432	0.972458	510.963493	248965.874858	36.597960	1071.665331	954.494797	81.720162	1693806260.210387	0.000000
214.000000	23.390382	0.727884	8.978615	104.446954	34.029057	-21.248552	166.117290	107.485509	-68.189685	187.184051	160.291947	-4.535215	127.919045	265.515882	-60.819912	73.341741	0.964834	0.995436	0.862663	0.862509	0.928107	0.860334	1.027658	483.831575	271091.204882	36.597773	965.792297	1002.970407	94.397124	1693806260.214386	0.000000
215.000000	22.305857	-0.634255	24.242180	96.267701	-14.106109	38.456836	140.946793	5.071649	82.662682	211.885092	-17.308005	65.408969	260.260931	19.568909	117.932163	348.328025	0.882469	0.832803	0.994720	0.894041	0.836470	0.953484	0.912276	542.129256	238490.079598	36.607689	1006.632276	908.355166	92.864754	1693806260.218367	0.000000
216.000000	22.227860	-6.640591	40.848197	77.442695	-4.185415	91.893706	108.610781	-52.817221	387.528242	133.042628	-27.667926	190.222100	100.635528	-57.182434	379.710632	101.686608	0.950954	0.830228	0.989705	0.973232	0.820287	0.947772	0.980345	541.430893	270279.140894	36.600080	955.049881	962.111217	91.782823	1693806260.222358	0.000000
217.000000	20.492530	-10.194155	55.191937	50.461178	-25.165641	152.534127	31.162054	76.264770	467.786347	31.797367	147.936065	243.298440	-65.843884	201.155541	135.988381	-87.946094	0.868716	0.934125	0.922267	0.849524	0.986029	0.967794	0.916396	547.413868	233106.157563	36.592552	923.713370	923.433124	98.630773	1693806260.226351	0.000000
218.000000	19.812199	-9.902804	69.713018	27.665989	19.648881	128.727585	-30.918141	249.052578	98.320773	42.630680	184.057862	-54.792116	178.610906	182.812916	-6.753474	261.155922	0.847619	0.808810	0.808873	0.855021	0.927631	0.886026	1.074014	521.680021	264091.188296	36.601645	1013.267314	1085.798657	98.391770	1693806260.230355	0.000000
219.000000	17.921797	-5.708279	77.208647	4.832614	67.365830	87.171459	-34.252928	200.708369	-51.412037	139.424426	247.795216	-18.347856	393.064311	12.228657	198.013177	145.278341	0.954170	0.864011	0.983312	0.852459	0.983895	0.806594	0.925133	537.124614	253595.045887	36.592484	914.503332	1015.317758	81.035025	1693806260.234351	0.000000
220.000000	16.526081	-4.749397	68.488926	-13.649704	89.399942	28.606301	62.319210	126.349514	14.249564	242.872476	-156.029919	472.001959	94.353638	217.825385	207.679320	-10.726509	0.892695	0.961363	0.840653	0.959192	0.891987	0.855981	1.016002	537.142642	265939.910659	36.593935	941.145507	1002.676460	95.110419	1693806260.238347	0.000000
221.000000	15.351283	3.352998	63.377661	-12.354926	124.345873	3.859892	162.722961	9.891826	105.338829	133.757150	35.051372	567.240957	-26.487238	806.139692	-24.388604	258.451467	0.924584	0.874929	0.922170	0.917889	0.875250	0.833293	0.944691	458.019305	230938.221684	36.606294	946.487674	979.860341	87.929873	1693806260.242350	0.000000
222.000000	13.413971	7.818828	55.376892	-3.875097	116.582651	-16.419284	170.654618	-63.208336	258.517392	16.336273	171.345318	61.546984	246.706946	221.959641	168.102755	170.726078	0.984634	0.842037	0.950264	0.957472	0.832722	0.941299	0.966006	483.233999	276234.808874	36.602738	1037.906171	1050.311589	83.121101	1693806260.246359	0.000000
223.000000	11.775963	14.380616	43.006186	23.620184	81.155336	23.210132	108.493352	16.561335	153.734970	-43.250820	213.847130	57.669533	245.113928	-1.058858	723.234272	-25.080271	0.948842	0.838914	0.871736	0.888725	0.856600	0.979396	1.056958	463.802363	262894.262325	36.596681	932.995003	995.385867	81.084319	1693806260.250358	0.000000
224.000000	10.000000	21.502190	26.279361	48.647389	36.887971	78.661474	45.934542	131.828539	33.511745	304.860597	41.986452	227.412553	-22.640226	251.772831	-69.649753	626.480727	0.930157	0.836269	0.958372	0.945910	0.948608	0.918330	0.974125	523.876983	260683.936394	36.606621	915.297381	939.926790	84.186601	1693806260.254354	0.000000
225.000000	8.288162	27.704166	8.729531	74.410418	2.360492	114.757408	-44.311634	204.280342	-6.482232	452.504862	38.525151	198.760453	22.335750	235.964557	150.941576	425.167134	0.879556	0.890140	0.927368	0.912189	0.836544	0.904531	1.078053	504.083717	241765.045255	36.606483	1098.949663	986.078654	90.450984	1693806260.258353	0.000000
226.000000	6.501172	34.959943	-3.979649	99.896906	-8.537693	161.235467	-26.032231	143.212863	20.961949	234.767792	124.023141	45.310544	325.844111	-40.924601	452.138865	-223.434831	0.910349	0.996939	0.871422	0.863858	0.908681	0.856745	1.070978	528.747866	237744.522649	36.608302	941.485639	1084.544754	92.876421	1693806260.262358	0.000000
227.000000	4.614430	40.139406	-4.176849	102.805439	-14.777864	120.043689	55.796694	61.574385	184.310568	-51.532624	315.434048	-59.568487	594.155624	36.339450	130.255674	307.757924	0.996154	0.962124	0.858545	0.810142	0.912764	0.863134	0.942275	536.965212	275084.545241	36.604499	915.435891	950.985306	85.002461	1693806260.266356	0.000000
228.000000	3.170687	44.816835	-13.115250	85.065201	13.296769	47.608837	119.234751	-37.008771	195.504957	25.239026	144.598408	149.622134	0.961865	454.092742	34.958720	214.474427	0.924729	0.929324	0.966885	0.943782	0.925293	0.911957	1.061064	467.449559	276856.253565	36.600819	988.773258	1038.117074	92.979479	1693806260.270352	0.000000
229.000000	2.071883	48.267727	-6.877451	64.886285	61.287279	-7.616474	156.396011	26.326174	117.841932	154.716752	30.097812	352.409059	-27.842450	136.797005	199.836615	28.732171	0.989364	0.805334	0.908955	0.982638	0.839243	0.914253	1.015406	455.762438	247274.393856	36.601113	979.146819	979.972683	85.580980	1693806260.274353	0.000000
230.000000	0.626971	45.792287	3.646205	38.894638	113.597355	-50.070540	113.234965	94.613375	10.219037	266.692701	19.587738	104.466441	330.577261	46.532195	229.082316	221.478129	0.836697	0.839847	0.897691	0.875275	0.920819	0.824612	0.917750	450.670723	231247.563962	36.601819	979.815098	1036.775325	85.887626	1693806260.278356	0.000000
231.000000	-0.461833	49.133919	15.609587	13.315720	127.929935	-10.358205	55.141496	183.898384	-40.223205	127.616442	162.700538	-1.779018	194.474320	251.971479	-133.717413	455.652816	0.816636	0.851466	0.913950	0.961569	0.915813	0.936729	1.054345	458.348913	263004.760840	36.603989	1037.145050	1014.214131	94.929108	1693806260.282355	0.000000
232.000000	-1.572134	46.001679	28.848778	-2.972380	118.446020	59.875159	-25.031123	190.334933	92.785321	21.253533	302.363221	132.126356	-95.145514	396.070575	158.277482	-173.409785	0.918929	0.824517	0.861718	0.936291	0.879199	0.894840	0.939085	456.095392	260224.562528	36.598255	1082.317129	1007.879966	97.292642	1693806260.286354	0.000000
233.000000	-3.324296	40.449242	42.784990	-12.102607	85.393884	104.221764	0.334807	82.138399	212.506509	-47.411950	54.385213	339.661571	41.230451	94.434653	484.366909	158.563704	0.816588	0.895064	0.800077	0.817581	0.806395	0.822250	1.087298	526.971433	229745.951809	36.592272	999.032081	986.066794	97.569251	1693806260.290355	0.000000
234.000000	-2.881378	33.958803	61.565734	-15.402562	32.668201	124.951345	34.444417	8.884571	214.881967	181.543001	-66.633060	130.287237	192.621563	15.416471	-9.425248	509.426544	0.872440	0.934839	0.909314	0.900921	0.898048	0.839857	0.922669	529.873888	275249.163426	36.594593	925.638996	915.525443	93.727589	1693806260.294354	0.000000
235.000000	-3.565499	28.989694	71.794928	2.293259	-11.412868	137.302342	115.599822	-63.917203	50.573649	211.212124	109.396736	16.902144	171.051166	271.113467	70.259054	102.148748	0.973717	0.989620	0.816374	0.950873	0.956310	0.942016	1.029438	525.915800	241492.067023	36.590090	1087.855473	945.542306	84.491305	1693806260.298355	0.000000
236.000000	-3.906425	22.039841	77.629927	35.095880	-3.335130	73.539102	138.294761	67.189198	-63.542145	121.339821	254.030802	89.585274	-42.746143	187.461007	357.906549	78.235889	0.818494	0.822303	0.847929	0.810393	0.928861	0.998276	1.091162	549.481433	257477.142868	36.593806	1074.916718	947.948950	80.672888	1693806260.302356	0.000000
237.000000	-4.047445	14.938869	72.768367	61.697850	-10.143355	7.052078	151.150101	140.623943	22.840185	-48.275780	164.112925	370.922945	103.086692	-55.625209	146.112421	392.898917	0.802400	0.914154	0.942500	0.870703	0.919788	0.875952	1.069539	471.506518	257297.197553	36.601912	1055.628249	1018.798210	90.921467	1693806260.306359	0.000000
238.000000	-4.108872	9.240331	64.470808	89.077528	26.532723	-9.854123	65.571006	196.367283	133.134692	-38.590901	30.483214	180.333347	263.827298	348.781283	-61.976963	-75.541311	0.812123	0.832072	0.952531	0.812202	0.844010	0.981265	0.980828	461.352750	272806.267668	36.609595	970.889826	1050.797169	87.389060	1693806260.310361	0.000000
239.000000	-3.479792	1.212938	53.865887	106.451632	64.140216	-17.267093	8.284792	106.181485	237.893359	149.883766	39.780376	-17.676372	137.562500	697.728195	510.565525	59.265718	0.998003	0.876571	0.857588	0.884365	0.822177	0.949742	1.035511	500.161036	248613.426189	36.595647	926.858777	1032.226506	82.652447	1693806260.314361	0.000000
240.000000	-2.603158	-2.808674	36.416679	98.658197	90.636914	35.255681	-47.033914	-17.730802	119.727746	259.986798	192.398265	82.223746	-113.767350	46.287423	481.597826	672.374461	0.860879	0.867330	0.892835	0.846216	0.968029	0.813187	0.951631	463.326251	269123.969197	36.592563	955.132730	919.411604	99.622683	1693806260.318369	0.000000
241.000000	-1.852448	-4.411044	19.439457	71.574713	119.112924	112.959919	36.310791	-51.752978	-9.679872	117.081717	535.179307	578.802411	136.749836	88.097824	-24.939720	129.936798	0.864960	0.960138	0.957906	0.870697	0.903179	0.920529	0.907082	491.817737	267551.928754	36.598539	936.166412	1021.375897	88.300691	1693806260.322370	0.000000
242.000000	-1.310383	-10.431951	8.223481	53.539383	96.601462	140.050489	99.528462	38.404792	-40.561471	-38.153503	164.603399	246.088312	319.105913	252.488598	159.400094	93.529780	0.815122	0.868791	0.818405	0.804170	0.891383	0.873575	0.911960	478.661443	269060.877197	36.598313	1009.438172	983.521706	95.517416	1693806260.326370	0.000000
243.000000	0.049033	-7.688427	-2.946241	25.139304	84.946587	151.772861	156.217298	158.773406	146.422848	27.917981	-58.179790	-10.517274	90.060084	265.758980	301.343827	470.769079	0.854022	0.984578	0.975803	0.811464	0.806525	0.939395	1.056431	504.995911	230331.626248	36.598769	1046.659975	993.663123	88.306644	1693806260.330369	0.000000
244.000000	1.672088	-6.044745	-13.866529	-0.331075	36.903039	91.318374	327.972971	219.231047	408.256679	141.728809	91.196398	25.066565	-116.386481	54.360075	19.633254	124.941143	0.833244	0.972934	0.976747	0.956812	0.882346	0.804492	1.021960	457.468250	271531.885460	36.592835	1057.738493	977.748733	89.471476	1693806260.334366	0.000000
245.000000	2.891095	-1.482817	-12.989020	-23.692062	8.578592	34.156856	142.366807	116.819680	224.590775	279.965285	298.266429	191.855439	202.140548	120.462436	86.425623	-99.119793	0.984894	0.818912	0.943413	0.921394	0.824128	0.837245	0.900663	475.564987	265063.220816	36.605474	903.980025	963.879596	83.441800	1693806260.338368	0.000000
246.000000	4.600603	1.847247	-10.314469	-22.511722	-25.788012	-33.768852	-10.119444	14.824340	79.103861	122.275329	199.931427	316.009606	672.381018	272.928014	204.336882	281.559935	0.997243	0.911899	0.927485	0.807390	0.845344	0.916432	1.088340	504.552907	262116.407370	36.590268	1052.898670	1091.683804	92.146120	1693806260.342371	0.000000
247.000000	6.371401	7.280548	4.793583	-1.063456	-22.096635	-43.427961	-18.079154	-66.058282	-48.891568	17.914673	16.046480	71.868580	50.188921	76.990791	136.063722	202.549559	0.884605	0.974874	0.992783	0.837471	0.807613	0.816212	0.995072	468.109019	241979.082133	36.606952	1088.803995	1002.998426	94.550214	1693806260.346373	0.000000
248.000000	8.277656	14.141500	20.072479	18.088639	21.894174	12.274740	-1.596808	35.630513	23.439114	9.057866	-74.773073	-44.822800	-122.992666	-46.780461	38.828693	-20.858051	0.933260	0.999643	0.877800	0.996296	0.970438	0.956645	0.985852	473.745926	264406.700543	36.592064	950.542552	996.612304	96.950061	1693806260.350375	0.000000
249.000000	10.000000	21.289192	34.181362	47.164094	63.713611	84.968732	93.786539	233.346601	146.899289	323.096364	205.318232	163.613158	263.535875	182.161635	358.493138	276.021474	0.828502	0.836885	0.823788	0.828783	0.863167	0.848137	1.095219	510.008260	256697.586975	36.600835	941.368762	909.755154	91.303201	1693806260.354374	0.000000
250.000000	11.777266	28.846144	51.420825	70.024201	106.748289	149.827310	150.226586	207.641573	238.137900	451.042725	263.381397	280.057937	189.086078	336.454321	304.506749	257.423382	0.911131	0.880781	0.975113	0.962133	0.929600	0.950841	1.071925	470.424984	246162.997472	36.596741	1035.516650	1077.976056	95.788763	1693806260.358372	0.000000
251.000000	13.447956	36.328699	58.825805	88.660099	125.454718	134.787427	169.676175	151.910185	166.988306	240.214829	96.642459	30.011284	-21.414929	-127.519006	-59.559029	63.700839	0.964474	0.915744	0.877593	0.997894	0.849418	0.831229	0.982523	473.344607	257858.751007	36.608040	1061.499438	1042.047739	98.750725	1693806260.362370	0.000000
252.000000	15.242256	40.351863	65.040991	104.742721	120.739977	111.059860	85.915303	58.387401	25.806035	-6.488038	-6.722552	18.645427	-49.702599	104.053676	171.669597	207.264029	0.919570	0.897236	0.839135	0.821768	0.876265	0.927028	0.976019	534.834644	228447.508146	36.609822	1050.488835	1049.108159	90.554676	1693806260.366371	0.000000
253.000000	16.992603	43.127386	72.391591	87.569556	79.798845	49.367033	26.115358	-68.442312	-74.877564	9.271825	60.245950	180.680712	202.607660	221.284616	236.736968	214.516157	0.883871	0.915034	0.845248	0.888685	0.877132	0.897838	1.098673	463.281719	263507.198173	36.595311	1039.559829	976.677344	99.061104	1693806260.370374	0.000000
254.000000	17.930052	44.669739	72.386621	64.543406	35.918288	-6.151445	-0.904534	-32.398319	60.041554	154.950391	222.710209	358.395463	174.983858	293.293063	58.701513	-211.718057	0.800493	0.862391	0.806270	0.862074	0.957151	0.914512	1.031390	518.498040	267979.569538	36.593404	1082.532461	1064.120050	92.931481	1693806260.374378	0.000000
255.000000	19.979549	47.549428	63.539695	38.737155	-0.005832	-49.566018	-7.981370	87.971502	192.251378	216.687089	167.118266	89.498261	-102.921382	-48.528857	4.992260	410.117395	0.962850	0.996749	0.922414	0.973527	0.847032	0.990408	0.923093	455.984250	249593.312731	36.608877	983.293166	1084.527103	85.841976	1693806260.378378	0.000000
0.000000	20.485276	46.808653	46.457968	13.083365	-8.842984	9.562514	157.408073	324.967079	393.622402	237.521447	-33.978827	-188.457106	69.798690	378.069346	772.930966	713.664191	0.945856	0.810577	0.824510	0.987974	0.867211	0.963670	1.089149	503.685453	231204.487051	36.596293	952.080726	954.419592	85.530205	1693806260.382380	0.000000
1.000000	21.543895	44.464481	31.029508	-2.409839	-0.676714	59.881867	311.747780	351.277389	164.710103	-101.008449	-10.069144	262.944992	708.133051	507.800122	283.442775	-129.065146	0.898400	0.821364	0.915491	0.890560	0.949556	0.903184	1.016594	547.849002	230401.327036	36.603125	986.591682	1086.053025	80.212497	1693806260.386372	0.000000
2.000000	22.162371	40.753420	16.328222	-21.334446	26.266174	123.758881	176.124675	82.167885	-65.945299	-20.284934	198.065296	226.189299	167.561558	6.548630	42.812627	159.336945	0.998229	0.812199	0.868192	0.872266	0.951741	0.803546	0.958079	528.193080	268511.689542	36.595867	1037.543513	1085.743916	81.646888	1693806260.390376	0.000000
3.000000	23.132701	33.975621	1.544835	-2.523252	65.527565	135.083037	94.937483	10.182619	26.738964	149.978557	180.574418	126.616426	-59.385340	-0.144425	247.011023	372.719614	0.867995	0.976806	0.961433	0.944582	0.941367	0.981800	0.997656	507.956742	239550.386440	36.598506	935.847977	933.822121	93.408867	1693806260.394377	0.000000
4.000000	24.496324	28.494355	-3.064949	8.273431	98.000579	119.510709	35.275124	14.751927	138.185128	252.061016	110.234638	22.989291	74.161574	396.432116	275.910597	35.582140	0.978563	0.816541	0.886093	0.944170	0.878697	0.882622	0.978874	467.081422	260222.967739	36.591334	902.412951	1086.242558	94.125465	1693806260.398375	0.000000
5.000000	23.675330	22.137971	-8.964097	34.924142	134.114477	68.374071	-45.763387	60.771486	251.719978	120.995720	-55.748538	72.468123	403.142984	181.319717	-103.153465	142.625140	0.935791	0.803524	0.958367	0.915793	0.843192	0.829382	1.087766	540.021471	258628.091334	36.598553	944.122358	988.355249	85.863121	1693806260.402375	0.000000
6.000000	23.913574	15.347728	-8.188708	60.482448	105.600731	-3.273632	14.715022	139.851773	186.681590	9.272932	28.125314	253.938688	162.115442	5.309876	161.735233	370.701520	0.834073	0.979460	0.913743	0.894611	0.908979	0.926758	0.956992	546.086186	266035.449788	36.608123	1010.194961	937.239313	86.294926	1693806260.406376	0.000000
7.000000	23.287079	7.971467	-6.864322	86.038126	79.485579	-19.165042	76.073302	207.362533	50.875402	39.225151	286.709735	150.877892	-140.608720	187.528554	316.755767	20.391032	0.943753	0.923565	0.927500	0.852458	0.893147	0.924165	1.090826	523.668383	268051.226754	36.601858	960.133118	975.765783	82.754027	1693806260.410378	0.000000
8.000000	23.958762	3.892229	7.895897	86.425089	38.739782	-16.874460	151.352600	114.580109	-40.781544	139.779762	232.030633	51.392328	122.765011	410.795497	-45.733127	28.938572	0.889354	0.936144	0.842413	0.958940	0.801941	0.830197	0.947798	492.314591	264872.641992	36.604079	1019.242792	985.737758	87.384364	1693806260.414382	0.000000
9.000000	22.715960	-0.589837	24.473404	90.675418	7.746994	36.844389	193.207905	15.669160	32.067307	239.452967	45.810593	60.830490	384.624581	23.735437	46.110943	233.396540	0.946182	0.927135	0.985539	0.947299	0.833360	0.840434	1.076956	538.657691	259234.296977	36.602507	980.935333	982.285828	96.409365	1693806260.418389	0.000000
10.000000	22.333415	-4.734999	38.708872	77.783817	-35.871894	98.476149	116.426599	-39.362015	155.643056	135.327047	39.550797	326.966294	122.013192	-2.777449	282.933549	126.998506	0.940899	0.846538	0.982484	0.911672	0.991298	0.873568	1.012374	527.714381	262525.108263	36.590579	967.626766	931.834402	84.719501	1693806260.422390	0.000000
11.000000	20.412869	-10.063681	57.338945	51.906604	-23.221202	118.676218	35.062903	31.640367	216.908804	-43.702379	142.698822	200.299099	16.478576	306.748319	143.139910	124.496744	0.812394	0.994773	0.874146	0.820079	0.897333	0.981480	0.917810	543.901689	252465.096614	36.607570	1032.390256	1054.602528	85.950877	1693806260.426386	0.000000
12.000000	19.677469	-9.277759	62.827037	21.727943	16.007985	153.901971	0.418434	128.053976	103.546061	39.009567	259.605205	27.431805	166.306887	260.149060	60.574001	521.877911	0.908709	0.871613	0.969799	0.989358	0.949541	0.807689	1.057729	524.802195	261149.773987	36.597263	934.173076	1079.355801	93.081109	1693806260.430387	0.000000
13.000000	18.271788	-6.525414	65.616903	7.785346	62.555349	85.545250	2.236965	178.771460	-48.234140	170.580990	122.386749	40.016535	283.971775	-59.466360	198.757466	140.359704	0.930331	0.994883	0.953264	0.941158	0.887480	0.898951	0.904398	531.346070	237993.906789	36.590013	931.169682	982.940295	88.591660	1693806260.434395	0.000000
14.000000	16.539218	-3.282202	78.046819	-4.992743	91.583564	30.390297	64.916074	124.025984	-46.284559	224.999236	-70.315902	309.466693	84.770119	127.998575	343.960849	32.073522	0.973469	0.872535	0.856989	0.946576	0.881638	0.937673	1.013821	483.317480	274088.018020	36.604809	929.752220	1001.980937	94.003385	1693806260.438403	0.000000
15.000000	15.277721	0.089920	65.411356	-24.320422	137.696826	-16.296752	122.147537	25.140915	102.912894	126.831941	35.742319	319.188127	-40.036614	469.375839	-66.194117	780.892971	0.939892	0.895307	0.817145	0.900502	0.895642	0.928914	0.917464	496.847812	278646.000656	36.600753	987.702734	1043.981780	88.056706	1693806260.442391	0.000000
16.000000	13.381938	7.893886	58.319275	-10.535581	96.328706	-0.606161	176.855193	-59.281448	266.592707	3.955609	269.036090	-3.112647	225.254641	202.582330	355.237338	380.436793	0.826453	0.811913	0.873156	0.900455	0.975558	0.820776	1.005047	466.087261	239509.671842	36.599172	990.241205	1086.146409	93.423361	1693806260.446396	0.000000
17.000000	11.819371	14.631803	42.210550	22.441944	74.515990	19.962900	108.976998	-8.247027	146.264492	27.187886	195.739422	40.950271	371.587411	-43.164319	746.676578	101.832998	0.907988	0.853393	0.884154	0.869769	0.929879	0.945059	1.032795	499.012346	263964.956945	36.599525	1062.208795	981.425475	93.049483	1693806260.450401	0.000000
18.000000	10.000000	21.289902	25.607766	49.394906	37.906556	85.967504	46.373981	106.306253	23.461868	158.425498	3.950406	230.529801	47.873912	556.383128	-58.450515	390.461554	0.978888	0.940487	0.943150	0.807306	0.870596	0.804983	0.930683	464.008795	265787.272909	36.596718	921.031238	1079.832467	98.511315	1693806260.454399	0.000000
19.000000	8.298889	29.027430	12.691678	67.777914	9.587659	149.072185	9.557507	208.047666	-27.184003	281.232929	34.888620	594.188798	29.757132	239.351939	-20.674777	302.068146	0.810741	0.983979	0.918806	0.862280	0.949810	0.866709	0.937999	493.880287	243531.290038	36.601164	915.776485	1033.671860	98.642146	1693806260.458403	0.000000
20.000000	6.578315	35.948694	-0.511225	93.999122	-25.722180	134.543803	-14.999691	157.288182	50.473702	123.844107	130.727205	116.137851	536.750068	83.745500	294.972982	22.331793	0.951579	0.951452	0.802676	0.857132	0.805146	0.894508	1.036934	471.441039	277180.721054	36.607769	953.947778	1055.521224	93.142285	1693806260.462395	0.000000
21.000000	4.579853	38.475361	-8.717797	99.180362	-20.854313	97.363770	50.925084	53.109422	188.648067	-43.509556	473.921638	-174.251954	208.733205	47.849371	143.211224	217.638599	0.954576	0.892739	0.819740	0.811973	0.932961	0.941341	0.906330	497.417349	230555.657856	36.595815	901.510273	1010.002999	89.694063	1693806260.466394	0.000000
22.000000	3.420475	46.232962	-6.142090	80.481768	25.808456	48.284021	127.849522	-5.071288	254.981695	-35.403322	283.002665	176.186855	71.418853	441.813051	-160.255273	281.197457	0.926222	0.851319	0.820277	0.929435	0.954340	0.975564	1.033844	512.038491	262476.230872	36.601953	974.213872	1002.934296	92.372812	1693806260.470396	0.000000
23.000000	1.513981	45.955569	-12.543189	69.275892	66.755925	10.931896	191.445367	-23.188531	126.317663	142.960664	-93.836457	344.458696	8.407305	134.398818	368.059182	-181.518817	0.992700	0.918004	0.849324	0.908352	0.845152	0.901641	1.030659	541.634640	251933.908830	36.600416	1015.750711	1065.768452	81.030425	1693806260.474397	0.000000
24.000000	0.254666	50.144470	0.823213	38.377847	92.015732	-25.365125	138.340828	90.540650	5.615680	428.574644	28.258274	75.392050	307.939318	-138.982726	337.633525	227.611040	0.801249	0.948542	0.845066	0.881729	0.984535	0.816019	0.917616	477.066297	233778.069392	36.603900	1057.280084	1075.881983	94.693129	1693806260.478399	0.000000
25.000000	-0.866597	48.558855	11.406051	13.994404	110.467250	4.392605	49.456737	180.179828	-47.188776	271.930511	243.060954	19.761449	198.358103	207.183901	-83.854704	356.943526	0.952770	0.873902	0.978707	0.961873	0.862079	0.880081	0.950846	474.082111	268743.434885	36.601313	978.312287	1044.774653	89.361937	1693806260.482399	0.000000
26.000000	-1.429969	47.175008	29.030276	-13.995572	106.490359	59.904915	-41.711954	201.677888	201.908836	-103.951031	243.447609	127.075610	-83.562349	254.615443	159.441447	-106.330206	0.872800	0.943072	0.998184	0.918512	0.941692	0.801287	1.019986	503.319530	234988.955242	36.604657	1068.660425	1035.406895	81.455361	1693806260.486404	0.000000
27.000000	-2.513579	39.248775	42.678855	-7.580717	86.175769	113.267244	-53.293534	82.218870	449.093602	18.489722	46.950139	325.024801	63.411911	-91.057450	311.368009	159.563437	0.837544	0.945912	0.942738	0.897888	0.974516	0.853939	1.059197	478.473683	250798.818911	36.600021	929.911263	919.047690	80.520111	1693806260.490397	0.000000
28.000000	-3.174322	35.774868	54.883103	-11.188254	38.160125	155.348310	36.696576	17.268753	389.032678	148.133315	-28.805951	136.990271	256.715398	-24.243579	76.506092	385.079725	0.985323	0.815084	0.981097	0.867681	0.953106	0.931027	1.038462	455.650454	277686.774172	36.590581	1060.942549	968.256014	86.206622	1693806260.494397	0.000000
29.000000	-4.408183	28.509201	63.989544	8.004549	-9.495482	110.252574	128.206281	12.446737	54.607855	301.186956	109.792922	-12.249074	168.356854	224.674480	65.064459	-117.712964	0.989976	0.880462	0.820860	0.878970	0.832096	0.834049	1.022786	451.083061	272352.320655	36.602753	1057.473663	1042.689531	90.424560	1693806260.498397	0.000000
30.000000	-3.831851	21.962764	72.625733	34.352904	-17.374366	70.500026	171.893597	122.427916	9.698420	115.667075	251.942873	97.264509	-41.033231	171.692593	369.320202	182.294845	0.963836	0.822619	0.967885	0.964075	0.942053	0.812459	0.991333	481.313602	265786.156158	36.609670	941.334215	1076.202798	97.043672	1693806260.502398	0.000000
31.000000	-4.340648	14.648285	73.762727	58.122841	-12.615937	15.127632	156.058637	339.388249	14.070244	-14.017757	190.532394	333.842604	93.738006	-20.583821	288.836846	728.331221	0.830567	0.915118	0.822502	0.905145	0.832999	0.829732	0.927479	478.596477	240233.516432	36.594445	945.716985	1025.500728	87.880013	1693806260.506405	0.000000
32.000000	-4.481655	8.717667	68.196879	83.750872	23.954746	-21.154252	64.022577	399.225875	140.246968	-29.671367	-75.329604	177.054301	406.016001	172.082182	46.976407	-15.353498	0.813411	0.942830	0.954344	0.987379	0.932167	0.939856	1.044702	533.463109	234401.892420	36.599544	986.334762	960.691070	93.056245	1693806260.510405	0.000000
33.000000	-3.465474	3.505844	50.210817	97.127346	61.486652	5.332362	1.765007	102.483901	183.515026	156.978385	6.332118	-114.879629	133.706305	568.615639	549.247192	17.998778	0.913071	0.812611	0.961594	0.800399	0.917951	0.949646	1.051761	466.136542	241996.414358	36.592809	931.613146	956.675161	99.979276	1693806260.514399	0.000000
34.000000	-2.603671	-3.340436	36.870127	99.514450	103.069406	33.856103	-18.468797	-6.250776	148.592451	302.729269	156.395913	57.262410	-1.417863	102.812948	251.823547	391.701474	0.815227	0.999200	0.968228	0.870747	0.942174	0.991276	0.937632	495.624047	244029.110481	36.600920	1009.544181	939.474282	87.054644	1693806260.518402	0.000000
35.000000	-1.872299	-4.411566	21.057617	74.661724	104.231692	107.050340	66.121064	-50.545210	-5.533358	134.365938	183.287973	213.457497	141.267620	-84.780626	40.530349	136.368414	0.877861	0.817164	0.966618	0.949176	0.841902	0.927960	1.039399	487.885835	242508.605343	36.607217	987.082576	1079.749340	91.598786	1693806260.522403	0.000000
36.000000	-0.618927	-8.502858	9.153229	54.600689	102.586589	160.876053	212.515812	51.549073	-6.171857	-37.930120	76.594653	258.746102	377.606194	317.860522	176.109516	45.795291	0.934769	0.982613	0.898475	0.889601	0.893363	0.950555	1.026450	488.069167	228719.857673	36.605909	1007.593515	1012.531818	98.148379	1693806260.526404	0.000000
37.000000	0.711333	-8.361711	-1.452863	24.408556	83.899392	136.009819	134.583296	149.771785	80.298234	-14.443227	-3.516892	53.746018	155.427338	251.294878	285.282736	388.296702	0.866727	0.817004	0.856033	0.953595	0.952988	0.908281	1.085744	513.188089	228713.548677	36.604420	922.524132	1063.745738	89.448807	1693806260.530402	0.000000
38.000000	1.819575	-5.265161	-14.783033	-5.207092	34.971410	92.234897	138.783336	231.757848	243.908820	141.039070	99.321866	-17.120014	-40.738492	-115.199899	17.683088	148.410810	0.951238	0.892541	0.975518	0.956254	0.812714	0.966429	0.979228	477.802052	240260.614263	36.590278	1018.606110	1082.531029	87.859957	1693806260.534406	0.000000
39.000000	3.514989	-2.289317	-13.713998	-4.105111	5.863206	23.368743	76.510030	127.603242	155.883801	244.937555	211.737076	471.052999	388.285872	129.913989	76.064522	-5.557056	0.875609	0.806009	0.801850	0.809735	0.816484	0.988103	1.001973	522.529376	248658.750725	36.605818	903.692810	982.185652	90.181170	1693806260.538407	0.000000
40.000000	4.702831	0.921045	-7.634765	-25.504454	-24.482490	3.632226	-2.491157	23.399296	78.712000	133.768324	213.368786	542.329261	340.465878	361.448815	413.765924	408.442393	0.946051	0.928733	0.984552	0.821410	0.850051	0.932361	0.966595	452.212495	275399.820602	36.592879	904.930273	1033.906356	97.147488	1693806260.542405	0.000000
41.000000	6.539369	7.537485	6.370582	-7.947008	-21.264810	-26.016446	-51.336287	-31.649343	-48.049679	-20.767792	24.952142	25.928501	47.299010	57.095849	139.822827	211.266722	0.954038	0.836133	0.960587	0.972666	0.887365	0.873700	1.009073	466.163207	264653.031106	36.609959	943.658892	1042.290429	94.990570	1693806260.546407	0.000000
42.000000	8.280686	14.513525	19.949428	19.401976	19.964846	23.122987	-2.404028	-4.187157	41.554071	-5.987919	11.251891	-42.620292	-93.433443	-136.727023	30.086130	-142.180345	0.859360	0.869041	0.948469	0.807410	0.948610	0.900884	0.903011	497.233591	270504.958320	36.608089	1004.152563	999.099042	83.113327	1693806260.550405	0.000000
43.000000	10.000000	21.273580	34.197457	46.887661	63.145343	85.703996	93.780507	106.201846	160.535510	192.204336	388.208698	175.197836	177.351289	321.944090	356.422262	424.990248	0.829810	0.858468	0.923766	0.878806	0.811634	0.930435	1.074145	526.420963	241677.143914	36.608723	1095.566299	995.599348	96.159984	1693806260.554405	0.000000
44.000000	11.712396	28.317623	47.918499	68.933622	96.181259	122.582066	189.997835	157.027861	180.976524	256.189210	544.697272	312.965050	217.501521	325.102545	273.915899	518.319901	0.950777	0.997000	0.932838	0.944105	0.865216	0.905282	1.094255	535.148473	240938.470121	36.592812	1088.689212	980.325151	88.104348	1693806260.558407	0.000000
45.000000	13.536673	36.295513	60.087900	91.746274	108.831641	145.045438	170.532389	168.396060	151.671913	128.573071	189.214315	76.799339	-63.798068	-23.178297	21.258630	-198.090717	0.915146	0.870580	0.921566	0.947876	0.934746	0.967249	1.071454	455.884751	231672.218954	36.607972	1036.623473	944.846861	99.115134	1693806260.562411	0.000000
46.000000	15.213735	41.509723	70.461705	104.692444	116.549785	114.833957	83.115215	45.105284	29.614199	-33.206794	18.708591	-91.132281	-73.221533	31.907013	158.359569	577.222602	0.928559	0.848937	0.996301	0.811942	0.869150	0.928894	1.045537	462.115830	243824.746442	36.609623	1037.221297	973.366663	95.166734	1693806260.566416	0.000000
47.000000	17.004025	43.067591	69.880366	78.750502	81.781561	47.482342	20.171790	-55.294199	-36.426817	-50.512864	64.149545	177.735082	201.204590	351.154695	657.779694	258.031976	0.898892	0.804967	0.872791	0.804295	0.998541	0.887551	0.985761	521.067274	262571.394422	36.608604	1075.159402	907.990645	86.482202	1693806260.570411	0.000000
48.000000	18.582812	45.673503	66.633129	71.116127	35.261194	13.370156	-5.683099	-5.147271	67.210614	154.573625	207.692144	337.920970	313.162348	138.376801	-29.878296	-125.041060	0.985961	0.918796	0.815871	0.921563	0.956142	0.945193	1.019511	530.537050	266702.473312	36.601440	1063.653938	998.194957	99.313215	1693806260.574411	0.000000
49.000000	19.220746	50.743424	57.534236	38.400248	-14.680633	-19.220743	-12.300931	95.221004	188.815950	420.731911	210.270452	83.706763	66.188883	-141.368579	9.129174	181.314118	0.808846	0.845606	0.829541	0.800489	0.898469	0.946787	0.956178	542.768100	236902.498453	36.606581	973.559413	1035.548359	85.315882	1693806260.578408	0.000000
50.000000	20.445343	47.301599	48.927488	13.605323	-30.057241	15.590381	82.296287	208.841582	181.378323	275.247704	14.288204	-6.593688	63.269592	506.773705	357.776289	369.257370	0.938249	0.989415	0.891109	0.892415	0.860846	0.945884	0.942497	511.926200	259111.423268	36.608714	1078.635321	1036.932637	84.215335	1693806260.582410	0.000000
51.000000	22.124183	45.398847	31.216501	-8.874994	-7.017070	59.900859	134.633612	150.514784	87.781151	-98.542443	-47.880915	131.919244	187.540944	749.373623	123.747055	-46.513148	0.887355	0.898566	0.956329	0.822123	0.898181	0.945091	0.963086	541.548423	271458.283650	36.604143	1079.677791	968.162241	86.094841	1693806260.586410	0.000000
52.000000	22.597789	42.822065	15.098969	-16.372226	27.530001	127.300547	132.756134	83.555570	-54.941069	-9.235229	181.298602	385.707573	223.108012	59.700454	-17.432791	159.193000	0.937401	0.822672	0.920847	0.839012	0.850583	0.958525	0.957969	535.846949	256384.000397	36.604664	1044.906106	1041.646797	89.296881	1693806260.590412	0.000000
53.000000	23.264220	34.631700	3.196094	-11.690854	64.303147	132.727441	98.535851	-29.547988	-13.875961	161.622487	303.650614	130.818101	-20.530315	-24.406127	263.727587	286.402408	0.960269	0.993669	0.887197	0.837249	0.941551	0.982627	0.996915	508.994265	250713.030546	36.603907	1084.686108	1009.543070	96.085256	1693806260.594423	0.000000
54.000000	24.072825	28.676183	-4.010600	10.739138	106.092843	111.826954	34.487575	-42.794896	237.671517	301.650068	110.196907	-135.268376	60.125045	361.473793	232.954537	104.577238	0.815085	0.882056	0.829193	0.920423	0.951657	0.945341	0.984284	470.185930	234455.513061	36.602023	901.194083	959.185284	80.101606	1693806260.598428	0.000000
55.000000	24.182698	22.186000	-7.732449	33.802179	123.657004	69.025041	-42.282197	66.921191	424.619574	124.682924	-91.019815	92.628737	338.005758	156.549155	-37.888358	134.824623	0.946958	0.842522	0.884357	0.915776	0.910370	0.922492	1.071764	489.616179	230468.799711	36.595175	988.884276	1066.990276	96.257631	1693806260.602421	0.000000
56.000000	23.897438	15.115928	-6.680750	66.447475	102.495345	-3.825304	-5.450874	186.843791	191.860990	-68.311141	79.293563	311.398105	342.694847	-36.705033	165.332976	439.757588	0.944655	0.909244	0.847038	0.880912	0.961483	0.903769	1.047485	481.272824	255987.125147	36.592201	1037.261450	1042.098230	87.369665	1693806260.606421	0.000000
57.000000	23.479102	8.476491	-0.934629	85.017391	77.390927	-26.519087	75.499231	183.309969	49.610733	-31.680453	175.994441	181.345873	-194.151191	157.703167	242.719244	16.511569	0.915749	0.819041	0.970271	0.822023	0.870294	0.807651	0.987007	518.752743	236778.524817	36.591699	1068.606314	1024.987349	82.862477	1693806260.610418	0.000000
58.000000	24.016854	3.242674	11.465150	104.484875	37.337138	6.336036	168.546599	102.191398	-52.061697	165.002425	237.018446	-82.191875	269.978816	197.609185	83.687963	44.384164	0.868039	0.906035	0.827254	0.996732	0.899938	0.850535	1.033507	525.579253	246169.917219	36.593737	966.067335	1070.112451	88.446838	1693806260.614414	0.000000
59.000000	22.383045	-0.978006	22.971987	93.022514	-2.991880	32.972868	137.133729	3.503498	28.977523	217.572777	62.720705	100.148233	403.283274	29.486698	-6.674427	869.126213	0.825946	0.942343	0.879625	0.804692	0.802851	0.997947	1.060010	526.717545	261449.661973	36.603467	938.079734	1006.019263	89.230532	1693806260.618412	0.000000
60.000000	21.840511	-4.224246	40.272291	73.069459	-33.443670	108.486136	126.689149	-61.744953	143.255621	137.154888	1.860176	501.249317	103.389190	24.860113	428.795169	226.994724	0.879131	0.805202	0.898227	0.816122	0.843762	0.867297	0.927701	527.858570	229320.461526	36.602852	1095.370251	1008.342495	91.136634	1693806260.622415	0.000000
61.000000	20.425919	-7.251844	52.529982	52.486636	-4.128065	151.811716	26.358920	86.188684	202.367411	23.502978	167.847051	437.268322	-167.519078	278.891549	139.477011	66.115702	0.855519	0.950009	0.970928	0.974030	0.808691	0.959919	1.072826	509.275722	251852.080518	36.595241	920.497291	1010.066926	89.722747	1693806260.626413	0.000000
62.000000	19.451706	-6.301152	65.314967	26.398438	25.303843	134.219574	-20.684399	312.330615	97.806572	-11.804334	237.223737	40.234881	162.314723	251.706625	-91.405299	376.496906	0.935625	0.963072	0.872078	0.844309	0.939099	0.966948	0.957782	529.011460	239555.345061	36.607918	1037.274018	1094.729203	97.469139	1693806260.630414	0.000000
63.000000	18.575496	-3.892106	67.310485	6.330570	61.432450	98.226688	-30.211578	382.870334	-15.617293	163.062904	139.910208	5.399000	408.804439	-72.977297	622.426549	145.687722	0.932625	0.941630	0.930936	0.843386	0.991319	0.827812	0.968273	483.588591	235627.580713	36.592787	939.367440	905.104168	81.860354	1693806260.634417	0.000000
64.000000	16.745669	-4.126083	77.284344	-7.058150	94.968572	22.679433	62.833717	148.679303	-16.235944	302.958628	-21.417294	289.739731	83.552628	116.226061	513.429951	117.264981	0.983588	0.836750	0.955709	0.819428	0.831698	0.977478	0.914471	495.162636	248164.024428	36.595545	983.886058	1007.648720	82.884953	1693806260.638417	0.000000
65.000000	15.296824	3.404828	70.920514	-13.064719	129.803343	-1.585315	124.542694	28.917764	115.053067	132.567788	58.950678	314.013063	-40.430303	417.524508	-265.255090	259.188224	0.884237	0.909663	0.898874	0.951883	0.917687	0.996242	0.958679	475.463479	278811.760414	36.605534	980.989263	998.348983	97.467980	1693806260.642415	0.000000
66.000000	13.500131	7.025396	54.778976	-8.109205	111.484984	-27.107795	192.052193	-27.794582	184.101704	10.015128	427.586148	-14.059760	185.247652	118.557056	172.892672	167.069702	0.903705	0.920274	0.917401	0.902246	0.860347	0.865846	1.048730	544.822921	246611.335651	36.594243	1047.837997	984.508267	83.736277	1693806260.646416	0.000000
67.000000	11.699292	14.177155	40.120945	19.760826	75.862135	20.845069	107.297210	28.263422	160.253095	-36.997334	460.118515	-39.971901	339.185408	-52.389452	222.158456	-155.999227	0.953334	0.931877	0.890826	0.983135	0.801993	0.967858	0.914354	458.920039	244806.302656	36.606012	916.122336	1043.792604	83.364223	1693806260.650419	0.000000
68.000000	10.000000	21.416281	26.120932	49.489471	33.653818	76.711899	44.186853	131.370726	55.854704	174.692645	76.065701	185.245272	92.346931	534.288293	60.143045	417.256155	0.861423	0.846313	0.806639	0.911572	0.860412	0.958343	1.075986	504.497830	277727.793913	36.595979	981.458247	994.262547	93.693374	1693806260.654422	0.000000
69.000000	8.261515	28.555658	9.836758	76.864649	9.359085	127.794136	-38.427812	217.565006	5.300403	222.085724	9.421740	305.579062	-86.668807	562.561466	90.596074	217.703688	0.839641	0.874420	0.936259	0.828463	0.911917	0.847139	0.952599	539.969123	267987.357865	36.604958	957.151725	995.153783	99.883283	1693806260.658417	0.000000
70.000000	6.625470	34.168203	-1.965330	94.111037	-12.192478	159.465160	-2.729576	144.307603	51.404250	132.201692	130.682687	24.479094	215.343619	-71.803877	202.044941	-181.308926	0.893697	0.977126	0.876237	0.885428	0.910517	0.816241	0.996275	514.382102	240616.622654	36.604134	994.189206	996.468166	92.068631	1693806260.662418	0.000000
71.000000	4.709652	38.425641	-5.024389	103.293447	-13.513886	108.745857	110.930925	51.634465	140.216180	-22.986395	300.277142	-125.478658	316.648729	57.135996	140.413740	235.512768	0.832339	0.992712	0.919242	0.950427	0.972007	0.922099	0.975249	450.970736	237304.260424	36.591504	1084.272359	1018.239857	84.546221	1693806260.666418	0.000000
72.000000	3.080955	44.120446	-16.909036	84.132015	13.362235	49.444598	138.317805	-49.479715	226.944337	20.272371	143.108562	188.793181	-11.587606	290.015851	81.818972	285.780695	0.937674	0.804172	0.927873	0.885465	0.816219	0.850048	1.001213	483.281863	257160.308113	36.600407	1048.932920	1092.765496	93.033785	1693806260.670415	0.000000
73.000000	1.380371	49.798301	-9.686473	67.153516	63.959184	11.057268	194.423468	-24.938827	115.338598	174.583104	-92.967846	215.370803	70.157617	135.706272	271.416417	36.299440	0.893599	0.961162	0.832854	0.891430	0.841736	0.810380	1.098542	465.679668	250079.963758	36.593065	938.078796	953.068717	90.682924	1693806260.674415	0.000000
74.000000	0.271072	45.849849	-1.379022	38.438347	105.044139	-25.734787	152.456651	89.730564	10.110591	426.994615	35.468078	95.767550	362.359270	-187.344287	303.223917	475.353565	0.930531	0.968717	0.863299	0.886931	0.800920	0.997759	1.017443	536.442387	271551.217829	36.602438	936.360672	942.395282	92.086865	1693806260.678418	0.000000
75.000000	-0.873592	46.689752	12.284848	9.696087	135.224466	1.978349	51.183879	207.699316	-44.821714	261.988047	167.247327	-94.697454	478.591465	238.450882	-165.622502	651.488792	0.948692	0.889067	0.979744	0.929313	0.835012	0.818551	0.918450	490.476504	246866.455625	36.592001	1075.025948	1001.719581	80.247431	1693806260.682418	0.000000
76.000000	-1.923728	46.254384	28.829500	-3.847766	96.907297	59.885727	0.073069	139.300534	92.107100	3.003211	261.903671	131.855707	-108.907361	217.959307	174.477535	19.144125	0.864286	0.923107	0.953418	0.860767	0.897729	0.828272	0.985028	517.757309	267555.120603	36.599307	1061.203036	938.907897	97.285722	1693806260.686417	0.000000
77.000000	-3.276546	42.923482	44.555711	-20.833451	74.885281	127.962354	-25.959775	83.354258	174.873583	42.522142	49.017418	329.657467	118.928752	-69.009104	317.220622	158.961065	0.853550	0.830645	0.907366	0.986131	0.804466	0.856731	0.932171	527.966155	257290.152912	36.594806	930.537827	930.235777	84.255995	1693806260.690419	0.000000
78.000000	-3.638600	35.528299	59.227906	-18.812576	38.270223	161.983533	44.098021	-50.393685	178.923955	190.207979	5.713334	129.355187	204.684624	6.873082	56.659043	375.982979	0.959400	0.952609	0.933716	0.932692	0.930636	0.943991	0.923426	452.503863	254117.486907	36.593699	954.873092	1010.144439	90.845166	1693806260.694420	0.000000
79.000000	-3.540431	29.606161	64.991035	4.612958	-1.626675	107.327369	132.432566	5.757198	45.255299	309.796333	109.497615	-130.241078	151.139914	365.242246	8.148324	70.137104	0.822764	0.925445	0.840243	0.869791	0.836973	0.908066	1.016545	543.194261	277803.546711	36.590408	905.349920	1033.525538	89.781620	1693806260.698419	0.000000
80.000000	-3.587036	21.986512	70.930810	35.399198	-17.119341	72.890606	141.326849	60.196065	-114.563609	126.916511	334.480371	137.999658	62.282961	161.517103	804.852997	85.153824	0.991403	0.827234	0.822484	0.884610	0.850990	0.879398	0.954550	500.384224	267327.485836	36.608458	969.392081	963.292152	99.213314	1693806260.702422	0.000000
81.000000	-3.909974	14.957684	70.082097	64.377595	-18.394467	11.407242	162.978319	143.400074	19.649639	25.792324	184.481587	552.204557	110.522818	-59.148145	282.391298	477.055750	0.887818	0.802692	0.956056	0.984031	0.813659	0.844796	0.988531	510.080568	256834.670156	36.591311	1058.119604	908.107525	82.833169	1693806260.706422	0.000000
82.000000	-4.564628	8.124954	61.284135	92.932405	14.006752	-25.143138	66.283957	148.078922	318.766942	-14.835125	41.493582	178.447839	211.245102	159.755119	72.808764	-26.718431	0.905543	0.969062	0.861208	0.992303	0.962147	0.905539	0.957082	478.096172	261374.882055	36.609007	1098.355880	1014.768004	82.687196	1693806260.710423	0.000000
83.000000	-2.975944	3.533029	54.267006	101.056944	66.166990	-22.586589	-26.850641	100.166024	203.689750	137.918028	-36.034076	-101.388870	132.542897	412.775894	282.768884	98.015674	0.945572	0.848807	0.886261	0.860311	0.915395	0.826803	1.062386	534.750069	261592.721164	36.608649	952.269389	1018.332668	85.386536	1693806260.714427	0.000000
84.000000	-2.509489	-2.367093	37.307266	83.398531	99.593733	32.866791	-25.308315	-20.577772	117.154380	171.208431	191.258943	18.738346	-36.605460	51.473184	239.243947	460.970505	0.938131	0.888074	0.998141	0.990572	0.914099	0.962228	0.926064	513.400701	232529.628165	36.599943	927.217178	944.523095	99.138134	1693806260.718434	0.000000
85.000000	-2.410377	-7.498765	19.648507	71.281925	116.172298	99.440736	29.146004	6.770820	-36.225336	116.463085	197.689996	230.336583	141.044238	28.393303	76.434995	96.464249	0.924616	0.877406	0.992258	0.865392	0.839201	0.817117	1.052743	454.946670	259534.259874	36.598815	995.395331	928.115756	94.960031	1693806260.722430	0.000000
86.000000	-1.212761	-8.206834	3.021532	52.861128	104.516993	135.019812	116.521774	42.810974	-1.669485	-6.669663	72.182740	187.151808	381.016325	680.442541	167.440304	-31.517190	0.896118	0.815677	0.920050	0.919505	0.840889	0.858914	1.017257	533.747694	236013.010967	36.609653	962.243751	911.339036	98.447677	1693806260.726424	0.000000
87.000000	0.179514	-8.645416	-9.973978	27.605119	80.015097	134.914236	166.413573	153.681680	81.531185	4.818175	-33.144727	11.550636	100.922187	245.974602	229.529117	433.794187	0.914507	0.818081	0.811778	0.879180	0.938704	0.858887	0.940846	473.914467	261782.024066	36.599413	1088.993073	1090.893942	86.248767	1693806260.730423	0.000000
88.000000	1.715865	-8.697451	-7.186479	-7.340344	36.889988	97.124971	141.866735	182.359512	213.426058	145.713970	192.388887	62.287647	-2.790492	-6.113821	49.338864	111.785285	0.857403	0.909369	0.981676	0.800108	0.826148	0.940599	1.040831	484.981321	232720.961551	36.601361	986.013646	907.524926	90.167099	1693806260.734426	0.000000
89.000000	3.504378	-5.163831	-9.960226	-22.248024	3.311796	34.355948	75.876449	143.134960	208.398556	189.844506	537.932515	240.377168	201.983327	130.305521	-30.890182	-119.297166	0.990467	0.988288	0.940345	0.913437	0.909522	0.915490	0.983442	454.954086	233438.025526	36.606187	904.623425	925.150383	85.573768	1693806260.738428	0.000000
90.000000	4.712050	1.019832	-2.662068	-7.325980	-17.345999	-19.164401	-20.415784	11.688807	76.475504	127.197284	165.264722	195.478265	387.041461	265.850116	204.060924	661.807909	0.823255	0.871105	0.888123	0.967747	0.969555	0.977541	0.943706	518.147566	241932.427866	36.590340	954.438734	1073.350989	98.348313	1693806260.742425	0.000000
91.000000	6.605540	8.816475	6.574481	-3.539052	-1.574848	-8.456937	-1.410300	-58.142667	-2.404824	17.473768	34.732232	-49.742666	16.950992	83.057051	134.787051	371.176372	0.806519	0.836273	0.913026	0.815952	0.851404	0.997495	0.958153	528.392510	242798.900024	36.603000	935.783600	1067.888398	91.372414	1693806260.746426	0.000000
92.000000	8.309875	14.858643	17.026643	21.986857	27.046119	29.486219	14.283960	-7.088562	-24.418798	7.139034	-58.957235	-1.349205	24.340068	66.061054	-117.824443	53.517933	0.968649	0.968023	0.889690	0.891317	0.827875	0.923742	0.903522	460.117740	266932.628351	36.597807	937.028756	925.176839	82.582855	1693806260.750426	0.000000
93.000000	10.000000	21.525293	34.089411	47.651554	66.220271	75.651599	98.749097	216.371476	129.110449	173.654246	150.865817	165.831124	233.062476	323.186430	294.654208	387.188561	0.985508	0.866546	0.868380	0.950781	0.913836	0.842597	1.057811	524.543020	277248.901735	36.594058	975.717302	1000.875842	83.377613	1693806260.754427	0.000000
94.000000	11.696534	28.738377	51.056811	80.885226	112.009355	122.383379	138.521450	438.609219	210.913892	210.189447	188.482893	340.114545	539.352453	343.627077	213.766692	303.314849	0.889553	0.911659	0.899007	0.903498	0.850045	0.857506	1.029730	483.482142	272641.591611	36.590795	921.894469	1039.208952	82.907719	1693806260.758429	0.000000
95.000000	13.492106	34.370371	59.817276	90.189589	137.596568	141.041916	182.751321	145.204864	171.229062	113.503940	100.547278	12.385125	92.355748	-38.067378	-205.934372	-157.987011	0.848210	0.870005	0.872108	0.902998	0.840674	0.970795	1.097741	520.938412	243639.154614	36.595305	1082.815863	1094.151148	93.723667	1693806260.762428	0.000000
96.000000	15.142675	38.356114	74.597740	90.561914	109.558669	102.609251	83.411200	54.021014	-19.470718	-56.385220	-115.429140	-122.333469	-58.136525	37.195820	300.490066	191.474776	0.902848	0.978640	0.805088	0.896652	0.800438	0.956880	0.919057	528.947089	249310.490836	36.592355	1091.327996	919.506851	80.729309	1693806260.766435	0.000000
97.000000	16.500571	46.875758	67.878618	82.715792	84.623765	52.611485	-6.814795	1.087070	-27.169119	33.592616	82.907182	147.070643	304.904481	430.525484	779.460427	210.719036	0.944195	0.860156	0.850744	0.942239	0.947208	0.920425	1.026188	504.613966	263924.913959	36.606839	1042.268725	922.452580	89.410391	1693806260.770429	0.000000
98.000000	17.914175	47.922983	72.845972	66.446887	38.655619	-1.199918	-22.438395	-18.877478	61.988115	179.889024	317.626442	335.454519	233.648264	136.442040	-64.298654	-179.914532	0.833376	0.873128	0.894074	0.812026	0.856099	0.929041	1.023584	468.540187	261823.117254	36.601718	937.927487	963.261570	99.910832	1693806260.774429	0.000000
